TITLE	
DATA TYPE	ULTRAVIOLET SPECTRUM
ORIGIN	JASCO
OWNER	
DATE	18/06/04
TIME	12:15:20
SPECTROMETER/DATA SYSTEM	
LOCALE	1031
RESOLUTION	
DELTAX	-0.025
XUNITS	NANOMETERS
YUNITS	TRANSMITTANCE
FIRSTX	  650.0000
LASTX	  500.0000
NPOINTS	    6001
FIRSTY	     1.53897
MAXY	     1.54779
MINY	     1.26289
XYDATA
650.0000	1.53897
649.9750	1.53897
649.9500	1.54049
649.9250	1.53892
649.9000	1.53612
649.8750	1.53745
649.8500	1.53817
649.8250	1.5373
649.8000	1.53701
649.7750	1.53602
649.7500	1.53477
649.7250	1.53234
649.7000	1.53331
649.6750	1.53627
649.6500	1.54138
649.6250	1.54302
649.6000	1.54477
649.5750	1.54277
649.5500	1.54779
649.5250	1.54398
649.5000	1.53919
649.4750	1.53982
649.4500	1.54043
649.4250	1.5418
649.4000	1.53988
649.3750	1.5391
649.3500	1.53722
649.3250	1.53454
649.3000	1.53243
649.2750	1.53237
649.2500	1.53284
649.2250	1.53364
649.2000	1.534
649.1750	1.53644
649.1500	1.53597
649.1250	1.53608
649.1000	1.53747
649.0750	1.53655
649.0500	1.53564
649.0250	1.53763
649.0000	1.53784
648.9750	1.53769
648.9500	1.53516
648.9250	1.53472
648.9000	1.53739
648.8750	1.53469
648.8500	1.5347
648.8250	1.53581
648.8000	1.53718
648.7750	1.53845
648.7500	1.53678
648.7250	1.53876
648.7000	1.53698
648.6750	1.5328
648.6500	1.53142
648.6250	1.53237
648.6000	1.53216
648.5750	1.52887
648.5500	1.52995
648.5250	1.52819
648.5000	1.52735
648.4750	1.53058
648.4500	1.53054
648.4250	1.53019
648.4000	1.53334
648.3750	1.53597
648.3500	1.53605
648.3250	1.5338
648.3000	1.52978
648.2750	1.52913
648.2500	1.52873
648.2250	1.52808
648.2000	1.5293
648.1750	1.53241
648.1500	1.5384
648.1250	1.53502
648.1000	1.5334
648.0750	1.5339
648.0500	1.53257
648.0250	1.5284
648.0000	1.52304
647.9750	1.52453
647.9500	1.52603
647.9250	1.52562
647.9000	1.52752
647.8750	1.53075
647.8500	1.53627
647.8250	1.53822
647.8000	1.53608
647.7750	1.53852
647.7500	1.54019
647.7250	1.53998
647.7000	1.53724
647.6750	1.53813
647.6500	1.53773
647.6250	1.53335
647.6000	1.5331
647.5750	1.5342
647.5500	1.5326
647.5250	1.53244
647.5000	1.53321
647.4750	1.53402
647.4500	1.53281
647.4250	1.52849
647.4000	1.5269
647.3750	1.52713
647.3500	1.52407
647.3250	1.52644
647.3000	1.52656
647.2750	1.52748
647.2500	1.53144
647.2250	1.53052
647.2000	1.53247
647.1750	1.53058
647.1500	1.52882
647.1250	1.5291
647.1000	1.52778
647.0750	1.53047
647.0500	1.52745
647.0250	1.52708
647.0000	1.53036
646.9750	1.53108
646.9500	1.5301
646.9250	1.5293
646.9000	1.52952
646.8750	1.52776
646.8500	1.52636
646.8250	1.52516
646.8000	1.52497
646.7750	1.5257
646.7500	1.52737
646.7250	1.52958
646.7000	1.52749
646.6750	1.52776
646.6500	1.52752
646.6250	1.52676
646.6000	1.53211
646.5750	1.53157
646.5500	1.53246
646.5250	1.53529
646.5000	1.53473
646.4750	1.53442
646.4500	1.53376
646.4250	1.52958
646.4000	1.52971
646.3750	1.52566
646.3500	1.52527
646.3250	1.52746
646.3000	1.52846
646.2750	1.52876
646.2500	1.5273
646.2250	1.52675
646.2000	1.5246
646.1750	1.52394
646.1500	1.5237
646.1250	1.52349
646.1000	1.52146
646.0750	1.51983
646.0500	1.52355
646.0250	1.52405
646.0000	1.52624
645.9750	1.5269
645.9500	1.53035
645.9250	1.53342
645.9000	1.53725
645.8750	1.53453
645.8500	1.5319
645.8250	1.53196
645.8000	1.53281
645.7750	1.53489
645.7500	1.53395
645.7250	1.53359
645.7000	1.53153
645.6750	1.53042
645.6500	1.53207
645.6250	1.52997
645.6000	1.52667
645.5750	1.52682
645.5500	1.52836
645.5250	1.52779
645.5000	1.52901
645.4750	1.52696
645.4500	1.53004
645.4250	1.53159
645.4000	1.53297
645.3750	1.53172
645.3500	1.53218
645.3250	1.5332
645.3000	1.52946
645.2750	1.52623
645.2500	1.52517
645.2250	1.53001
645.2000	1.52967
645.1750	1.53022
645.1500	1.53089
645.1250	1.52868
645.1000	1.53278
645.0750	1.53071
645.0500	1.53122
645.0250	1.53006
645.0000	1.53008
644.9750	1.53197
644.9500	1.53272
644.9250	1.53265
644.9000	1.52949
644.8750	1.53001
644.8500	1.53061
644.8250	1.53005
644.8000	1.53131
644.7750	1.53054
644.7500	1.52932
644.7250	1.53373
644.7000	1.53577
644.6750	1.53301
644.6500	1.53213
644.6250	1.53121
644.6000	1.53286
644.5750	1.53485
644.5500	1.53317
644.5250	1.53591
644.5000	1.53724
644.4750	1.53759
644.4500	1.53927
644.4250	1.53884
644.4000	1.53698
644.3750	1.53663
644.3500	1.53451
644.3250	1.53329
644.3000	1.52888
644.2750	1.52798
644.2500	1.53109
644.2250	1.53268
644.2000	1.53404
644.1750	1.53431
644.1500	1.53185
644.1250	1.53486
644.1000	1.53559
644.0750	1.53369
644.0500	1.53248
644.0250	1.53314
644.0000	1.53719
643.9750	1.5361
643.9500	1.53252
643.9250	1.53087
643.9000	1.52954
643.8750	1.52795
643.8500	1.52614
643.8250	1.52795
643.8000	1.53054
643.7750	1.53443
643.7500	1.53272
643.7250	1.53852
643.7000	1.53653
643.6750	1.53719
643.6500	1.53182
643.6250	1.5325
643.6000	1.53409
643.5750	1.53729
643.5500	1.5368
643.5250	1.53522
643.5000	1.53402
643.4750	1.53638
643.4500	1.53541
643.4250	1.53808
643.4000	1.53921
643.3750	1.53997
643.3500	1.54199
643.3250	1.54081
643.3000	1.53801
643.2750	1.53474
643.2500	1.53092
643.2250	1.53038
643.2000	1.52914
643.1750	1.52761
643.1500	1.52728
643.1250	1.52649
643.1000	1.52908
643.0750	1.52962
643.0500	1.53055
643.0250	1.53282
643.0000	1.53503
642.9750	1.53443
642.9500	1.53453
642.9250	1.53324
642.9000	1.53427
642.8750	1.53218
642.8500	1.53262
642.8250	1.53288
642.8000	1.53344
642.7750	1.53372
642.7500	1.52975
642.7250	1.53036
642.7000	1.53037
642.6750	1.53484
642.6500	1.53236
642.6250	1.5332
642.6000	1.53797
642.5750	1.54036
642.5500	1.53855
642.5250	1.5354
642.5000	1.53375
642.4750	1.53703
642.4500	1.53412
642.4250	1.53207
642.4000	1.53257
642.3750	1.5343
642.3500	1.53319
642.3250	1.53314
642.3000	1.53287
642.2750	1.53429
642.2500	1.53489
642.2250	1.53291
642.2000	1.53638
642.1750	1.53793
642.1500	1.53949
642.1250	1.53922
642.1000	1.53888
642.0750	1.54002
642.0500	1.53854
642.0250	1.53542
642.0000	1.53654
641.9750	1.53281
641.9500	1.53638
641.9250	1.53376
641.9000	1.53134
641.8750	1.53216
641.8500	1.53105
641.8250	1.52897
641.8000	1.52694
641.7750	1.53062
641.7500	1.5311
641.7250	1.53148
641.7000	1.53163
641.6750	1.53502
641.6500	1.5369
641.6250	1.5367
641.6000	1.53333
641.5750	1.53534
641.5500	1.53387
641.5250	1.53372
641.5000	1.53096
641.4750	1.5302
641.4500	1.53055
641.4250	1.52583
641.4000	1.53065
641.3750	1.53083
641.3500	1.53077
641.3250	1.53305
641.3000	1.53151
641.2750	1.5304
641.2500	1.529
641.2250	1.52825
641.2000	1.52773
641.1750	1.52798
641.1500	1.52736
641.1250	1.5309
641.1000	1.53397
641.0750	1.53333
641.0500	1.53304
641.0250	1.53397
641.0000	1.5321
640.9750	1.53209
640.9500	1.5334
640.9250	1.52916
640.9000	1.52693
640.8750	1.52991
640.8500	1.5316
640.8250	1.5296
640.8000	1.52857
640.7750	1.52822
640.7500	1.53031
640.7250	1.52991
640.7000	1.52877
640.6750	1.526
640.6500	1.53011
640.6250	1.53335
640.6000	1.53164
640.5750	1.52786
640.5500	1.52527
640.5250	1.52531
640.5000	1.52674
640.4750	1.52498
640.4500	1.52554
640.4250	1.53033
640.4000	1.53286
640.3750	1.53571
640.3500	1.53671
640.3250	1.53421
640.3000	1.53596
640.2750	1.53265
640.2500	1.53333
640.2250	1.53244
640.2000	1.53252
640.1750	1.53249
640.1500	1.53047
640.1250	1.52989
640.1000	1.53066
640.0750	1.52665
640.0500	1.52601
640.0250	1.52457
640.0000	1.52603
639.9750	1.52827
639.9500	1.53055
639.9250	1.53244
639.9000	1.53333
639.8750	1.53596
639.8500	1.53488
639.8250	1.53092
639.8000	1.52989
639.7750	1.52579
639.7500	1.52522
639.7250	1.52512
639.7000	1.52546
639.6750	1.52663
639.6500	1.52671
639.6250	1.53119
639.6000	1.53506
639.5750	1.53676
639.5500	1.53311
639.5250	1.53407
639.5000	1.53248
639.4750	1.53291
639.4500	1.53084
639.4250	1.53133
639.4000	1.53085
639.3750	1.5337
639.3500	1.5321
639.3250	1.53252
639.3000	1.53035
639.2750	1.53036
639.2500	1.52902
639.2250	1.52517
639.2000	1.5275
639.1750	1.52799
639.1500	1.52935
639.1250	1.52737
639.1000	1.52917
639.0750	1.53014
639.0500	1.52572
639.0250	1.52834
639.0000	1.52415
638.9750	1.52484
638.9500	1.52168
638.9250	1.52064
638.9000	1.52128
638.8750	1.52181
638.8500	1.5217
638.8250	1.52137
638.8000	1.5251
638.7750	1.52631
638.7500	1.52643
638.7250	1.52531
638.7000	1.5269
638.6750	1.52599
638.6500	1.52266
638.6250	1.51925
638.6000	1.51586
638.5750	1.51751
638.5500	1.51692
638.5250	1.52022
638.5000	1.51897
638.4750	1.52079
638.4500	1.52363
638.4250	1.52352
638.4000	1.52386
638.3750	1.52299
638.3500	1.52276
638.3250	1.52093
638.3000	1.52279
638.2750	1.51996
638.2500	1.52049
638.2250	1.52211
638.2000	1.52405
638.1750	1.52456
638.1500	1.52445
638.1250	1.52381
638.1000	1.5238
638.0750	1.51981
638.0500	1.52189
638.0250	1.52248
638.0000	1.51902
637.9750	1.52239
637.9500	1.52217
637.9250	1.52363
637.9000	1.5216
637.8750	1.51986
637.8500	1.51704
637.8250	1.51817
637.8000	1.51764
637.7750	1.51699
637.7500	1.51694
637.7250	1.51715
637.7000	1.51813
637.6750	1.51932
637.6500	1.51684
637.6250	1.52048
637.6000	1.51898
637.5750	1.52161
637.5500	1.51939
637.5250	1.51975
637.5000	1.51917
637.4750	1.51908
637.4500	1.51918
637.4250	1.51834
637.4000	1.51721
637.3750	1.51536
637.3500	1.51637
637.3250	1.51559
637.3000	1.51237
637.2750	1.51432
637.2500	1.51817
637.2250	1.52191
637.2000	1.52346
637.1750	1.52238
637.1500	1.52361
637.1250	1.52334
637.1000	1.5198
637.0750	1.51593
637.0500	1.51323
637.0250	1.51413
637.0000	1.5135
636.9750	1.51345
636.9500	1.51321
636.9250	1.51498
636.9000	1.51622
636.8750	1.5166
636.8500	1.51754
636.8250	1.52109
636.8000	1.51928
636.7750	1.52071
636.7500	1.51661
636.7250	1.51663
636.7000	1.51841
636.6750	1.52069
636.6500	1.52108
636.6250	1.52
636.6000	1.51948
636.5750	1.52223
636.5500	1.52155
636.5250	1.51604
636.5000	1.51332
636.4750	1.51111
636.4500	1.51142
636.4250	1.51245
636.4000	1.51133
636.3750	1.51054
636.3500	1.50911
636.3250	1.51372
636.3000	1.51315
636.2750	1.51187
636.2500	1.50841
636.2250	1.51253
636.2000	1.51424
636.1750	1.51154
636.1500	1.51171
636.1250	1.51473
636.1000	1.51336
636.0750	1.51389
636.0500	1.51285
636.0250	1.51249
636.0000	1.51524
635.9750	1.51346
635.9500	1.51621
635.9250	1.51378
635.9000	1.51771
635.8750	1.51937
635.8500	1.52065
635.8250	1.52102
635.8000	1.5217
635.7750	1.51991
635.7500	1.51761
635.7250	1.51407
635.7000	1.51416
635.6750	1.51296
635.6500	1.51456
635.6250	1.51648
635.6000	1.51638
635.5750	1.51806
635.5500	1.51799
635.5250	1.51725
635.5000	1.51544
635.4750	1.51656
635.4500	1.51395
635.4250	1.51704
635.4000	1.51205
635.3750	1.50965
635.3500	1.51134
635.3250	1.50925
635.3000	1.51061
635.2750	1.51181
635.2500	1.51147
635.2250	1.51392
635.2000	1.51724
635.1750	1.5191
635.1500	1.51945
635.1250	1.52168
635.1000	1.5231
635.0750	1.52272
635.0500	1.51767
635.0250	1.5132
635.0000	1.51365
634.9750	1.51258
634.9500	1.50944
634.9250	1.50959
634.9000	1.50788
634.8750	1.51126
634.8500	1.51273
634.8250	1.51479
634.8000	1.51417
634.7750	1.51547
634.7500	1.51417
634.7250	1.51537
634.7000	1.51237
634.6750	1.51115
634.6500	1.51018
634.6250	1.50942
634.6000	1.5117
634.5750	1.51043
634.5500	1.51165
634.5250	1.51317
634.5000	1.51144
634.4750	1.51118
634.4500	1.50934
634.4250	1.51031
634.4000	1.51288
634.3750	1.51105
634.3500	1.51598
634.3250	1.51516
634.3000	1.51423
634.2750	1.51545
634.2500	1.51275
634.2250	1.51785
634.2000	1.51595
634.1750	1.51595
634.1500	1.5155
634.1250	1.51745
634.1000	1.5193
634.0750	1.51357
634.0500	1.51118
634.0250	1.51217
634.0000	1.51716
633.9750	1.51713
633.9500	1.51638
633.9250	1.51907
633.9000	1.52292
633.8750	1.51905
633.8500	1.51859
633.8250	1.51758
633.8000	1.51626
633.7750	1.51666
633.7500	1.51262
633.7250	1.51443
633.7000	1.51714
633.6750	1.51785
633.6500	1.51935
633.6250	1.52027
633.6000	1.51983
633.5750	1.51818
633.5500	1.51686
633.5250	1.51578
633.5000	1.5175
633.4750	1.51723
633.4500	1.51769
633.4250	1.51794
633.4000	1.51583
633.3750	1.5169
633.3500	1.51689
633.3250	1.51586
633.3000	1.51261
633.2750	1.51067
633.2500	1.51174
633.2250	1.51142
633.2000	1.51215
633.1750	1.51235
633.1500	1.51357
633.1250	1.51613
633.1000	1.51433
633.0750	1.51277
633.0500	1.51327
633.0250	1.51137
633.0000	1.51103
632.9750	1.50904
632.9500	1.50928
632.9250	1.50988
632.9000	1.51265
632.8750	1.51504
632.8500	1.51284
632.8250	1.51166
632.8000	1.51251
632.7750	1.51149
632.7500	1.50859
632.7250	1.50878
632.7000	1.50978
632.6750	1.51157
632.6500	1.51429
632.6250	1.51162
632.6000	1.51323
632.5750	1.51402
632.5500	1.5132
632.5250	1.51402
632.5000	1.51335
632.4750	1.51575
632.4500	1.51718
632.4250	1.51681
632.4000	1.51497
632.3750	1.51685
632.3500	1.51434
632.3250	1.51961
632.3000	1.51821
632.2750	1.51999
632.2500	1.52112
632.2250	1.52098
632.2000	1.51803
632.1750	1.5184
632.1500	1.52185
632.1250	1.51864
632.1000	1.51814
632.0750	1.51744
632.0500	1.5202
632.0250	1.51848
632.0000	1.51517
631.9750	1.51501
631.9500	1.51083
631.9250	1.51372
631.9000	1.51136
631.8750	1.51373
631.8500	1.5139
631.8250	1.51802
631.8000	1.51838
631.7750	1.51614
631.7500	1.51648
631.7250	1.51594
631.7000	1.51311
631.6750	1.5159
631.6500	1.51294
631.6250	1.51404
631.6000	1.51496
631.5750	1.51929
631.5500	1.51918
631.5250	1.51856
631.5000	1.51845
631.4750	1.51878
631.4500	1.51838
631.4250	1.51491
631.4000	1.51535
631.3750	1.51623
631.3500	1.51688
631.3250	1.51802
631.3000	1.51922
631.2750	1.52251
631.2500	1.52054
631.2250	1.51912
631.2000	1.51967
631.1750	1.52043
631.1500	1.52297
631.1250	1.52367
631.1000	1.52107
631.0750	1.52232
631.0500	1.52031
631.0250	1.52212
631.0000	1.51856
630.9750	1.51655
630.9500	1.51857
630.9250	1.52196
630.9000	1.52247
630.8750	1.51893
630.8500	1.52089
630.8250	1.52028
630.8000	1.51954
630.7750	1.51813
630.7500	1.51702
630.7250	1.51814
630.7000	1.5193
630.6750	1.51564
630.6500	1.5154
630.6250	1.51767
630.6000	1.51863
630.5750	1.5202
630.5500	1.518
630.5250	1.5179
630.5000	1.51984
630.4750	1.51898
630.4500	1.51741
630.4250	1.51827
630.4000	1.51945
630.3750	1.5204
630.3500	1.52192
630.3250	1.52198
630.3000	1.52163
630.2750	1.5227
630.2500	1.51951
630.2250	1.51988
630.2000	1.51956
630.1750	1.51952
630.1500	1.51765
630.1250	1.51446
630.1000	1.51587
630.0750	1.51552
630.0500	1.51527
630.0250	1.51465
630.0000	1.51631
629.9750	1.51534
629.9500	1.51252
629.9250	1.51258
629.9000	1.51436
629.8750	1.51382
629.8500	1.51028
629.8250	1.51378
629.8000	1.51647
629.7750	1.51743
629.7500	1.51637
629.7250	1.51831
629.7000	1.51935
629.6750	1.5216
629.6500	1.52005
629.6250	1.52009
629.6000	1.52183
629.5750	1.52144
629.5500	1.5206
629.5250	1.51601
629.5000	1.51677
629.4750	1.51626
629.4500	1.51541
629.4250	1.51606
629.4000	1.51609
629.3750	1.51867
629.3500	1.5176
629.3250	1.51659
629.3000	1.51731
629.2750	1.5202
629.2500	1.51992
629.2250	1.52022
629.2000	1.51878
629.1750	1.5185
629.1500	1.51491
629.1250	1.50986
629.1000	1.50946
629.0750	1.50719
629.0500	1.50995
629.0250	1.51242
629.0000	1.51652
628.9750	1.51695
628.9500	1.5203
628.9250	1.51943
628.9000	1.51982
628.8750	1.51685
628.8500	1.51603
628.8250	1.51462
628.8000	1.51802
628.7750	1.51807
628.7500	1.5154
628.7250	1.5156
628.7000	1.51436
628.6750	1.51528
628.6500	1.51451
628.6250	1.51197
628.6000	1.51223
628.5750	1.50853
628.5500	1.50926
628.5250	1.50826
628.5000	1.50789
628.4750	1.50633
628.4500	1.50345
628.4250	1.50408
628.4000	1.50499
628.3750	1.50307
628.3500	1.50342
628.3250	1.50542
628.3000	1.50536
628.2750	1.50992
628.2500	1.51142
628.2250	1.51141
628.2000	1.51188
628.1750	1.51225
628.1500	1.51304
628.1250	1.51575
628.1000	1.51308
628.0750	1.51527
628.0500	1.51469
628.0250	1.51386
628.0000	1.51322
627.9750	1.51395
627.9500	1.51277
627.9250	1.51085
627.9000	1.51051
627.8750	1.50941
627.8500	1.50955
627.8250	1.51163
627.8000	1.51041
627.7750	1.51253
627.7500	1.515
627.7250	1.51449
627.7000	1.51491
627.6750	1.51526
627.6500	1.51264
627.6250	1.51251
627.6000	1.51048
627.5750	1.51196
627.5500	1.51277
627.5250	1.51427
627.5000	1.51251
627.4750	1.51199
627.4500	1.51377
627.4250	1.5122
627.4000	1.51112
627.3750	1.51186
627.3500	1.50924
627.3250	1.50893
627.3000	1.50875
627.2750	1.50669
627.2500	1.50751
627.2250	1.50684
627.2000	1.50456
627.1750	1.5052
627.1500	1.50569
627.1250	1.50611
627.1000	1.50768
627.0750	1.50858
627.0500	1.50827
627.0250	1.51059
627.0000	1.51337
626.9750	1.51175
626.9500	1.51114
626.9250	1.51322
626.9000	1.51262
626.8750	1.50835
626.8500	1.50783
626.8250	1.50581
626.8000	1.50306
626.7750	1.50367
626.7500	1.50241
626.7250	1.50503
626.7000	1.50617
626.6750	1.50409
626.6500	1.50745
626.6250	1.508
626.6000	1.50369
626.5750	1.50354
626.5500	1.50205
626.5250	1.50274
626.5000	1.50456
626.4750	1.50198
626.4500	1.50237
626.4250	1.50265
626.4000	1.50364
626.3750	1.50107
626.3500	1.50274
626.3250	1.50251
626.3000	1.50327
626.2750	1.50164
626.2500	1.50257
626.2250	1.50031
626.2000	1.50195
626.1750	1.50155
626.1500	1.50003
626.1250	1.50325
626.1000	1.50308
626.0750	1.50699
626.0500	1.50413
626.0250	1.50183
626.0000	1.50177
625.9750	1.50325
625.9500	1.50231
625.9250	1.50553
625.9000	1.50493
625.8750	1.5062
625.8500	1.50529
625.8250	1.50438
625.8000	1.50477
625.7750	1.50491
625.7500	1.50485
625.7250	1.50455
625.7000	1.50179
625.6750	1.49947
625.6500	1.49826
625.6250	1.50161
625.6000	1.50226
625.5750	1.50443
625.5500	1.50417
625.5250	1.50509
625.5000	1.50675
625.4750	1.5086
625.4500	1.50452
625.4250	1.50376
625.4000	1.50273
625.3750	1.50403
625.3500	1.50178
625.3250	1.50121
625.3000	1.4982
625.2750	1.50182
625.2500	1.50087
625.2250	1.49785
625.2000	1.49935
625.1750	1.50048
625.1500	1.50165
625.1250	1.50011
625.1000	1.49918
625.0750	1.50293
625.0500	1.50288
625.0250	1.50159
625.0000	1.49773
624.9750	1.49825
624.9500	1.49623
624.9250	1.49554
624.9000	1.49574
624.8750	1.49742
624.8500	1.498
624.8250	1.50004
624.8000	1.5001
624.7750	1.50021
624.7500	1.49697
624.7250	1.49679
624.7000	1.49678
624.6750	1.4971
624.6500	1.49832
624.6250	1.49931
624.6000	1.49804
624.5750	1.49654
624.5500	1.49294
624.5250	1.48913
624.5000	1.49217
624.4750	1.49129
624.4500	1.48923
624.4250	1.49118
624.4000	1.48957
624.3750	1.49198
624.3500	1.49163
624.3250	1.49236
624.3000	1.49482
624.2750	1.49758
624.2500	1.49997
624.2250	1.49624
624.2000	1.49642
624.1750	1.49758
624.1500	1.50049
624.1250	1.4996
624.1000	1.50028
624.0750	1.50054
624.0500	1.49677
624.0250	1.49745
624.0000	1.49426
623.9750	1.49096
623.9500	1.48981
623.9250	1.49428
623.9000	1.4924
623.8750	1.49266
623.8500	1.49172
623.8250	1.49154
623.8000	1.49048
623.7750	1.4896
623.7500	1.49121
623.7250	1.49488
623.7000	1.49348
623.6750	1.49518
623.6500	1.49841
623.6250	1.50046
623.6000	1.50009
623.5750	1.49707
623.5500	1.49348
623.5250	1.49731
623.5000	1.49702
623.4750	1.49382
623.4500	1.49448
623.4250	1.49382
623.4000	1.49999
623.3750	1.49801
623.3500	1.49829
623.3250	1.50163
623.3000	1.50174
623.2750	1.50133
623.2500	1.50108
623.2250	1.50186
623.2000	1.506
623.1750	1.50625
623.1500	1.50629
623.1250	1.50599
623.1000	1.50592
623.0750	1.50329
623.0500	1.50054
623.0250	1.49947
623.0000	1.50069
622.9750	1.5017
622.9500	1.5024
622.9250	1.50394
622.9000	1.5042
622.8750	1.50525
622.8500	1.50516
622.8250	1.50405
622.8000	1.50336
622.7750	1.50484
622.7500	1.50591
622.7250	1.5066
622.7000	1.50667
622.6750	1.50377
622.6500	1.50172
622.6250	1.50276
622.6000	1.5028
622.5750	1.50093
622.5500	1.49993
622.5250	1.50254
622.5000	1.50454
622.4750	1.50531
622.4500	1.50289
622.4250	1.50245
622.4000	1.49838
622.3750	1.49636
622.3500	1.49569
622.3250	1.49375
622.3000	1.49483
622.2750	1.49568
622.2500	1.496
622.2250	1.49742
622.2000	1.49893
622.1750	1.50037
622.1500	1.50156
622.1250	1.50246
622.1000	1.5064
622.0750	1.50792
622.0500	1.5081
622.0250	1.50481
622.0000	1.50304
621.9750	1.5041
621.9500	1.50278
621.9250	1.49974
621.9000	1.49979
621.8750	1.49946
621.8500	1.50078
621.8250	1.49877
621.8000	1.49836
621.7750	1.49923
621.7500	1.49845
621.7250	1.49878
621.7000	1.49927
621.6750	1.50115
621.6500	1.50133
621.6250	1.50544
621.6000	1.5071
621.5750	1.50926
621.5500	1.504
621.5250	1.50493
621.5000	1.5067
621.4750	1.50582
621.4500	1.503
621.4250	1.50067
621.4000	1.5058
621.3750	1.507
621.3500	1.50663
621.3250	1.5058
621.3000	1.50589
621.2750	1.50597
621.2500	1.50585
621.2250	1.50614
621.2000	1.50617
621.1750	1.50717
621.1500	1.50547
621.1250	1.5055
621.1000	1.50417
621.0750	1.50212
621.0500	1.50074
621.0250	1.50007
621.0000	1.50055
620.9750	1.50179
620.9500	1.50233
620.9250	1.50219
620.9000	1.50237
620.8750	1.49976
620.8500	1.50294
620.8250	1.49935
620.8000	1.49928
620.7750	1.50164
620.7500	1.50174
620.7250	1.50658
620.7000	1.50417
620.6750	1.50748
620.6500	1.50661
620.6250	1.50711
620.6000	1.50663
620.5750	1.50111
620.5500	1.49927
620.5250	1.49746
620.5000	1.49541
620.4750	1.49584
620.4500	1.49261
620.4250	1.49254
620.4000	1.4954
620.3750	1.49479
620.3500	1.49494
620.3250	1.49499
620.3000	1.49334
620.2750	1.49976
620.2500	1.50203
620.2250	1.50042
620.2000	1.5012
620.1750	1.50101
620.1500	1.50316
620.1250	1.49915
620.1000	1.50039
620.0750	1.4988
620.0500	1.49761
620.0250	1.49731
620.0000	1.49738
619.9750	1.4955
619.9500	1.49885
619.9250	1.50169
619.9000	1.50174
619.8750	1.50363
619.8500	1.49939
619.8250	1.49922
619.8000	1.49817
619.7750	1.50079
619.7500	1.50177
619.7250	1.50305
619.7000	1.50382
619.6750	1.49942
619.6500	1.50016
619.6250	1.49785
619.6000	1.4936
619.5750	1.49131
619.5500	1.48941
619.5250	1.49221
619.5000	1.49312
619.4750	1.49158
619.4500	1.49439
619.4250	1.49397
619.4000	1.49687
619.3750	1.4975
619.3500	1.49922
619.3250	1.49778
619.3000	1.49758
619.2750	1.49983
619.2500	1.49927
619.2250	1.50166
619.2000	1.50035
619.1750	1.5029
619.1500	1.50783
619.1250	1.50703
619.1000	1.50764
619.0750	1.50749
619.0500	1.50621
619.0250	1.50416
619.0000	1.50223
618.9750	1.49881
618.9500	1.49698
618.9250	1.49925
618.9000	1.49893
618.8750	1.50404
618.8500	1.50175
618.8250	1.50188
618.8000	1.50255
618.7750	1.50425
618.7500	1.50514
618.7250	1.50269
618.7000	1.50204
618.6750	1.50296
618.6500	1.5063
618.6250	1.50169
618.6000	1.49828
618.5750	1.49825
618.5500	1.49997
618.5250	1.50172
618.5000	1.49673
618.4750	1.49871
618.4500	1.49887
618.4250	1.50038
618.4000	1.49931
618.3750	1.49695
618.3500	1.49897
618.3250	1.50133
618.3000	1.50289
618.2750	1.50042
618.2500	1.49881
618.2250	1.49604
618.2000	1.49577
618.1750	1.49466
618.1500	1.49227
618.1250	1.49372
618.1000	1.49409
618.0750	1.49626
618.0500	1.49902
618.0250	1.49998
618.0000	1.49798
617.9750	1.49934
617.9500	1.50098
617.9250	1.50314
617.9000	1.50468
617.8750	1.50434
617.8500	1.50663
617.8250	1.504
617.8000	1.50311
617.7750	1.49875
617.7500	1.50005
617.7250	1.49909
617.7000	1.50167
617.6750	1.50125
617.6500	1.50135
617.6250	1.499
617.6000	1.50172
617.5750	1.50114
617.5500	1.50146
617.5250	1.49928
617.5000	1.49743
617.4750	1.49743
617.4500	1.49635
617.4250	1.49457
617.4000	1.4944
617.3750	1.49484
617.3500	1.49569
617.3250	1.49807
617.3000	1.49461
617.2750	1.4965
617.2500	1.49846
617.2250	1.49754
617.2000	1.4974
617.1750	1.49793
617.1500	1.50046
617.1250	1.50055
617.1000	1.49805
617.0750	1.49549
617.0500	1.49573
617.0250	1.49657
617.0000	1.49487
616.9750	1.49231
616.9500	1.49414
616.9250	1.49607
616.9000	1.49539
616.8750	1.49546
616.8500	1.49617
616.8250	1.49438
616.8000	1.4966
616.7750	1.49356
616.7500	1.49257
616.7250	1.49285
616.7000	1.49428
616.6750	1.49246
616.6500	1.49289
616.6250	1.49461
616.6000	1.49276
616.5750	1.49183
616.5500	1.48921
616.5250	1.48733
616.5000	1.48987
616.4750	1.48716
616.4500	1.48919
616.4250	1.48901
616.4000	1.48806
616.3750	1.48881
616.3500	1.48863
616.3250	1.49071
616.3000	1.4912
616.2750	1.49207
616.2500	1.49348
616.2250	1.49383
616.2000	1.49606
616.1750	1.49473
616.1500	1.49228
616.1250	1.49021
616.1000	1.48963
616.0750	1.488
616.0500	1.48861
616.0250	1.4898
616.0000	1.48748
615.9750	1.49046
615.9500	1.49453
615.9250	1.49435
615.9000	1.49545
615.8750	1.49448
615.8500	1.49437
615.8250	1.49473
615.8000	1.49271
615.7750	1.4918
615.7500	1.48578
615.7250	1.4859
615.7000	1.48518
615.6750	1.48441
615.6500	1.48498
615.6250	1.48417
615.6000	1.48368
615.5750	1.48461
615.5500	1.4831
615.5250	1.48388
615.5000	1.48318
615.4750	1.48216
615.4500	1.48267
615.4250	1.48397
615.4000	1.4858
615.3750	1.48666
615.3500	1.48769
615.3250	1.48919
615.3000	1.48901
615.2750	1.48961
615.2500	1.48866
615.2250	1.4866
615.2000	1.48736
615.1750	1.4863
615.1500	1.48275
615.1250	1.48352
615.1000	1.48417
615.0750	1.48429
615.0500	1.48611
615.0250	1.48385
615.0000	1.48551
614.9750	1.48579
614.9500	1.48675
614.9250	1.48671
614.9000	1.48439
614.8750	1.48671
614.8500	1.48593
614.8250	1.4848
614.8000	1.48711
614.7750	1.48354
614.7500	1.48434
614.7250	1.48234
614.7000	1.48503
614.6750	1.48693
614.6500	1.48807
614.6250	1.49043
614.6000	1.49184
614.5750	1.49383
614.5500	1.48855
614.5250	1.48844
614.5000	1.48701
614.4750	1.48698
614.4500	1.48702
614.4250	1.48678
614.4000	1.49035
614.3750	1.49216
614.3500	1.49097
614.3250	1.48907
614.3000	1.48496
614.2750	1.48908
614.2500	1.4868
614.2250	1.48312
614.2000	1.48325
614.1750	1.4832
614.1500	1.48529
614.1250	1.4837
614.1000	1.48198
614.0750	1.48198
614.0500	1.48375
614.0250	1.48221
614.0000	1.48868
613.9750	1.48786
613.9500	1.48406
613.9250	1.48381
613.9000	1.48306
613.8750	1.48135
613.8500	1.47937
613.8250	1.47782
613.8000	1.47815
613.7750	1.47687
613.7500	1.47807
613.7250	1.47805
613.7000	1.47794
613.6750	1.47885
613.6500	1.48157
613.6250	1.48336
613.6000	1.4828
613.5750	1.48124
613.5500	1.48321
613.5250	1.48186
613.5000	1.47938
613.4750	1.48233
613.4500	1.48024
613.4250	1.4843
613.4000	1.4873
613.3750	1.48585
613.3500	1.48416
613.3250	1.48271
613.3000	1.48136
613.2750	1.47993
613.2500	1.4763
613.2250	1.47814
613.2000	1.48102
613.1750	1.48157
613.1500	1.48396
613.1250	1.48467
613.1000	1.48289
613.0750	1.47929
613.0500	1.47686
613.0250	1.47572
613.0000	1.47387
612.9750	1.46926
612.9500	1.4723
612.9250	1.47439
612.9000	1.47751
612.8750	1.47478
612.8500	1.47271
612.8250	1.47583
612.8000	1.47738
612.7750	1.47926
612.7500	1.47728
612.7250	1.48067
612.7000	1.48327
612.6750	1.48319
612.6500	1.48038
612.6250	1.48081
612.6000	1.47788
612.5750	1.47798
612.5500	1.47658
612.5250	1.47895
612.5000	1.47832
612.4750	1.48026
612.4500	1.48117
612.4250	1.47741
612.4000	1.47745
612.3750	1.47361
612.3500	1.47503
612.3250	1.47589
612.3000	1.47664
612.2750	1.47619
612.2500	1.47706
612.2250	1.4784
612.2000	1.47728
612.1750	1.47812
612.1500	1.47619
612.1250	1.47647
612.1000	1.47586
612.0750	1.4756
612.0500	1.47452
612.0250	1.47564
612.0000	1.47725
611.9750	1.47792
611.9500	1.48008
611.9250	1.47987
611.9000	1.48411
611.8750	1.48124
611.8500	1.48095
611.8250	1.47912
611.8000	1.47587
611.7750	1.47566
611.7500	1.4735
611.7250	1.47248
611.7000	1.46868
611.6750	1.46865
611.6500	1.46789
611.6250	1.46852
611.6000	1.46832
611.5750	1.4674
611.5500	1.46885
611.5250	1.47014
611.5000	1.47115
611.4750	1.47063
611.4500	1.47182
611.4250	1.47213
611.4000	1.47329
611.3750	1.47347
611.3500	1.47415
611.3250	1.47475
611.3000	1.47733
611.2750	1.47935
611.2500	1.48209
611.2250	1.48226
611.2000	1.48142
611.1750	1.48297
611.1500	1.4854
611.1250	1.48227
611.1000	1.48239
611.0750	1.48254
611.0500	1.48162
611.0250	1.48108
611.0000	1.48068
610.9750	1.48289
610.9500	1.48491
610.9250	1.48383
610.9000	1.48614
610.8750	1.48367
610.8500	1.48197
610.8250	1.48086
610.8000	1.48256
610.7750	1.48169
610.7500	1.48256
610.7250	1.48515
610.7000	1.48734
610.6750	1.48712
610.6500	1.48678
610.6250	1.48726
610.6000	1.48706
610.5750	1.48355
610.5500	1.4838
610.5250	1.48519
610.5000	1.48381
610.4750	1.48307
610.4500	1.48417
610.4250	1.48453
610.4000	1.48569
610.3750	1.48659
610.3500	1.48497
610.3250	1.48807
610.3000	1.48516
610.2750	1.48714
610.2500	1.48344
610.2250	1.4831
610.2000	1.48286
610.1750	1.48346
610.1500	1.48231
610.1250	1.48042
610.1000	1.48036
610.0750	1.48475
610.0500	1.48626
610.0250	1.48579
610.0000	1.48447
609.9750	1.48709
609.9500	1.48537
609.9250	1.48614
609.9000	1.4824
609.8750	1.48515
609.8500	1.48629
609.8250	1.48513
609.8000	1.48466
609.7750	1.48303
609.7500	1.48259
609.7250	1.47929
609.7000	1.47782
609.6750	1.47914
609.6500	1.48126
609.6250	1.48155
609.6000	1.48307
609.5750	1.48504
609.5500	1.48507
609.5250	1.48672
609.5000	1.48372
609.4750	1.48388
609.4500	1.48792
609.4250	1.48808
609.4000	1.48908
609.3750	1.48869
609.3500	1.48838
609.3250	1.48707
609.3000	1.48549
609.2750	1.48563
609.2500	1.48721
609.2250	1.48493
609.2000	1.48588
609.1750	1.48779
609.1500	1.48867
609.1250	1.48724
609.1000	1.48612
609.0750	1.4822
609.0500	1.4791
609.0250	1.4793
609.0000	1.4768
608.9750	1.47717
608.9500	1.47672
608.9250	1.47803
608.9000	1.47787
608.8750	1.4772
608.8500	1.4776
608.8250	1.47949
608.8000	1.47756
608.7750	1.47642
608.7500	1.47861
608.7250	1.48113
608.7000	1.48165
608.6750	1.48289
608.6500	1.48358
608.6250	1.48401
608.6000	1.48404
608.5750	1.48263
608.5500	1.48073
608.5250	1.47917
608.5000	1.4797
608.4750	1.48081
608.4500	1.48153
608.4250	1.48264
608.4000	1.48337
608.3750	1.48197
608.3500	1.47989
608.3250	1.4761
608.3000	1.47225
608.2750	1.47039
608.2500	1.46894
608.2250	1.47056
608.2000	1.4726
608.1750	1.47531
608.1500	1.47522
608.1250	1.47624
608.1000	1.47469
608.0750	1.47517
608.0500	1.47431
608.0250	1.47414
608.0000	1.4728
607.9750	1.47612
607.9500	1.47631
607.9250	1.47823
607.9000	1.47467
607.8750	1.47468
607.8500	1.47656
607.8250	1.47612
607.8000	1.47687
607.7750	1.47521
607.7500	1.47504
607.7250	1.4745
607.7000	1.47447
607.6750	1.4744
607.6500	1.47503
607.6250	1.47534
607.6000	1.4779
607.5750	1.47623
607.5500	1.4784
607.5250	1.4774
607.5000	1.47669
607.4750	1.4747
607.4500	1.47437
607.4250	1.47411
607.4000	1.47295
607.3750	1.47144
607.3500	1.46912
607.3250	1.46882
607.3000	1.46804
607.2750	1.4708
607.2500	1.47233
607.2250	1.47294
607.2000	1.47516
607.1750	1.47669
607.1500	1.4799
607.1250	1.48076
607.1000	1.47798
607.0750	1.48005
607.0500	1.4826
607.0250	1.48474
607.0000	1.48347
606.9750	1.48153
606.9500	1.48181
606.9250	1.48163
606.9000	1.48076
606.8750	1.48056
606.8500	1.48218
606.8250	1.48273
606.8000	1.4829
606.7750	1.48217
606.7500	1.47895
606.7250	1.47733
606.7000	1.47718
606.6750	1.47825
606.6500	1.47903
606.6250	1.48148
606.6000	1.48404
606.5750	1.48647
606.5500	1.48869
606.5250	1.48843
606.5000	1.48652
606.4750	1.48684
606.4500	1.48519
606.4250	1.486
606.4000	1.48466
606.3750	1.48384
606.3500	1.48424
606.3250	1.48179
606.3000	1.47901
606.2750	1.48007
606.2500	1.48108
606.2250	1.48041
606.2000	1.48032
606.1750	1.48033
606.1500	1.48214
606.1250	1.48441
606.1000	1.48581
606.0750	1.48391
606.0500	1.4828
606.0250	1.48067
606.0000	1.48021
605.9750	1.47974
605.9500	1.47583
605.9250	1.47361
605.9000	1.47502
605.8750	1.47345
605.8500	1.47549
605.8250	1.47455
605.8000	1.47443
605.7750	1.47375
605.7500	1.4707
605.7250	1.47377
605.7000	1.47325
605.6750	1.47708
605.6500	1.48058
605.6250	1.47736
605.6000	1.48183
605.5750	1.48215
605.5500	1.4794
605.5250	1.47783
605.5000	1.47449
605.4750	1.47572
605.4500	1.47304
605.4250	1.47005
605.4000	1.47266
605.3750	1.47265
605.3500	1.47188
605.3250	1.47298
605.3000	1.47387
605.2750	1.47424
605.2500	1.47518
605.2250	1.47239
605.2000	1.47299
605.1750	1.47453
605.1500	1.47551
605.1250	1.47388
605.1000	1.4732
605.0750	1.47445
605.0500	1.47277
605.0250	1.47143
605.0000	1.47048
604.9750	1.46783
604.9500	1.46773
604.9250	1.46739
604.9000	1.46576
604.8750	1.46404
604.8500	1.46398
604.8250	1.46762
604.8000	1.46464
604.7750	1.46556
604.7500	1.46323
604.7250	1.46603
604.7000	1.46659
604.6750	1.46427
604.6500	1.46426
604.6250	1.46481
604.6000	1.46405
604.5750	1.46181
604.5500	1.46227
604.5250	1.46077
604.5000	1.46337
604.4750	1.46066
604.4500	1.46269
604.4250	1.46365
604.4000	1.46475
604.3750	1.46306
604.3500	1.46298
604.3250	1.46395
604.3000	1.46353
604.2750	1.46078
604.2500	1.46016
604.2250	1.45783
604.2000	1.45899
604.1750	1.46165
604.1500	1.46109
604.1250	1.46285
604.1000	1.46221
604.0750	1.46521
604.0500	1.46527
604.0250	1.46448
604.0000	1.46355
603.9750	1.46148
603.9500	1.45818
603.9250	1.4569
603.9000	1.45573
603.8750	1.45799
603.8500	1.45648
603.8250	1.45955
603.8000	1.45907
603.7750	1.46234
603.7500	1.45954
603.7250	1.45842
603.7000	1.4596
603.6750	1.45823
603.6500	1.45812
603.6250	1.45731
603.6000	1.45834
603.5750	1.45654
603.5500	1.4594
603.5250	1.45511
603.5000	1.4545
603.4750	1.45635
603.4500	1.45483
603.4250	1.45752
603.4000	1.45841
603.3750	1.45729
603.3500	1.46004
603.3250	1.45891
603.3000	1.45971
603.2750	1.46047
603.2500	1.45921
603.2250	1.46411
603.2000	1.46441
603.1750	1.46878
603.1500	1.46839
603.1250	1.47303
603.1000	1.47278
603.0750	1.47289
603.0500	1.46993
603.0250	1.4702
603.0000	1.46661
602.9750	1.46493
602.9500	1.46669
602.9250	1.46397
602.9000	1.4665
602.8750	1.46687
602.8500	1.46725
602.8250	1.4688
602.8000	1.47011
602.7750	1.46756
602.7500	1.46957
602.7250	1.46985
602.7000	1.46924
602.6750	1.46844
602.6500	1.47027
602.6250	1.47058
602.6000	1.47227
602.5750	1.47016
602.5500	1.47136
602.5250	1.4683
602.5000	1.46588
602.4750	1.46466
602.4500	1.46297
602.4250	1.46268
602.4000	1.46394
602.3750	1.46459
602.3500	1.46663
602.3250	1.46887
602.3000	1.46856
602.2750	1.46683
602.2500	1.46626
602.2250	1.46522
602.2000	1.46697
602.1750	1.46384
602.1500	1.46196
602.1250	1.4661
602.1000	1.46459
602.0750	1.46222
602.0500	1.46212
602.0250	1.46401
602.0000	1.46318
601.9750	1.46496
601.9500	1.46583
601.9250	1.46951
601.9000	1.4692
601.8750	1.46601
601.8500	1.46419
601.8250	1.46438
601.8000	1.46382
601.7750	1.46219
601.7500	1.46205
601.7250	1.4626
601.7000	1.46224
601.6750	1.45994
601.6500	1.45801
601.6250	1.4602
601.6000	1.46237
601.5750	1.46486
601.5500	1.46427
601.5250	1.46743
601.5000	1.47051
601.4750	1.47185
601.4500	1.4712
601.4250	1.46559
601.4000	1.46501
601.3750	1.46449
601.3500	1.46113
601.3250	1.46152
601.3000	1.46113
601.2750	1.4622
601.2500	1.46133
601.2250	1.46153
601.2000	1.46469
601.1750	1.46669
601.1500	1.46549
601.1250	1.46638
601.1000	1.4641
601.0750	1.46443
601.0500	1.46743
601.0250	1.46328
601.0000	1.46237
600.9750	1.46226
600.9500	1.4661
600.9250	1.46635
600.9000	1.46489
600.8750	1.46708
600.8500	1.46695
600.8250	1.46639
600.8000	1.47009
600.7750	1.46646
600.7500	1.4665
600.7250	1.4643
600.7000	1.46755
600.6750	1.46486
600.6500	1.46465
600.6250	1.46392
600.6000	1.46451
600.5750	1.46713
600.5500	1.46724
600.5250	1.46653
600.5000	1.4641
600.4750	1.46621
600.4500	1.46413
600.4250	1.462
600.4000	1.45951
600.3750	1.46043
600.3500	1.46079
600.3250	1.45994
600.3000	1.46178
600.2750	1.46118
600.2500	1.45966
600.2250	1.46003
600.2000	1.46048
600.1750	1.46493
600.1500	1.4615
600.1250	1.46163
600.1000	1.46295
600.0750	1.46101
600.0500	1.45885
600.0250	1.45573
600.0000	1.45779
599.9750	1.46112
599.9500	1.45932
599.9250	1.46176
599.9000	1.46353
599.8750	1.46509
599.8500	1.46314
599.8250	1.46011
599.8000	1.45672
599.7750	1.45598
599.7500	1.45468
599.7250	1.4498
599.7000	1.45075
599.6750	1.45209
599.6500	1.45333
599.6250	1.45614
599.6000	1.45572
599.5750	1.45484
599.5500	1.45692
599.5250	1.45662
599.5000	1.45906
599.4750	1.45724
599.4500	1.45614
599.4250	1.45816
599.4000	1.46229
599.3750	1.46156
599.3500	1.46289
599.3250	1.46594
599.3000	1.46559
599.2750	1.47012
599.2500	1.46703
599.2250	1.46568
599.2000	1.47013
599.1750	1.46993
599.1500	1.47237
599.1250	1.47447
599.1000	1.47404
599.0750	1.47861
599.0500	1.47828
599.0250	1.47959
599.0000	1.4797
598.9750	1.47884
598.9500	1.47459
598.9250	1.47356
598.9000	1.47442
598.8750	1.47412
598.8500	1.47115
598.8250	1.47026
598.8000	1.47025
598.7750	1.47189
598.7500	1.47098
598.7250	1.46867
598.7000	1.46585
598.6750	1.46777
598.6500	1.46899
598.6250	1.47131
598.6000	1.46985
598.5750	1.46949
598.5500	1.47051
598.5250	1.47106
598.5000	1.46881
598.4750	1.4691
598.4500	1.46922
598.4250	1.47197
598.4000	1.47061
598.3750	1.46931
598.3500	1.47047
598.3250	1.47226
598.3000	1.47332
598.2750	1.46893
598.2500	1.47077
598.2250	1.47336
598.2000	1.47211
598.1750	1.47059
598.1500	1.4713
598.1250	1.4714
598.1000	1.47049
598.0750	1.46669
598.0500	1.46597
598.0250	1.46586
598.0000	1.46663
597.9750	1.46637
597.9500	1.46839
597.9250	1.46929
597.9000	1.46914
597.8750	1.46948
597.8500	1.47112
597.8250	1.47096
597.8000	1.46926
597.7750	1.46516
597.7500	1.46332
597.7250	1.46436
597.7000	1.46404
597.6750	1.46044
597.6500	1.46048
597.6250	1.4618
597.6000	1.46301
597.5750	1.46415
597.5500	1.46329
597.5250	1.46159
597.5000	1.46481
597.4750	1.4627
597.4500	1.46447
597.4250	1.46726
597.4000	1.46568
597.3750	1.46597
597.3500	1.46471
597.3250	1.46173
597.3000	1.46432
597.2750	1.46321
597.2500	1.46312
597.2250	1.46238
597.2000	1.46062
597.1750	1.46231
597.1500	1.46235
597.1250	1.46189
597.1000	1.46359
597.0750	1.45986
597.0500	1.46105
597.0250	1.46384
597.0000	1.46228
596.9750	1.46066
596.9500	1.46001
596.9250	1.45999
596.9000	1.46226
596.8750	1.46035
596.8500	1.46256
596.8250	1.46256
596.8000	1.45895
596.7750	1.46147
596.7500	1.46251
596.7250	1.46129
596.7000	1.45695
596.6750	1.45638
596.6500	1.45657
596.6250	1.45581
596.6000	1.45632
596.5750	1.45454
596.5500	1.45637
596.5250	1.45792
596.5000	1.45857
596.4750	1.45745
596.4500	1.45382
596.4250	1.45379
596.4000	1.45034
596.3750	1.45077
596.3500	1.44749
596.3250	1.44682
596.3000	1.44806
596.2750	1.44894
596.2500	1.44956
596.2250	1.45033
596.2000	1.44915
596.1750	1.45127
596.1500	1.45437
596.1250	1.45599
596.1000	1.45322
596.0750	1.45469
596.0500	1.45335
596.0250	1.4546
596.0000	1.45166
595.9750	1.45059
595.9500	1.45229
595.9250	1.45082
595.9000	1.45159
595.8750	1.4508
595.8500	1.45222
595.8250	1.45378
595.8000	1.45099
595.7750	1.44847
595.7500	1.44756
595.7250	1.44832
595.7000	1.44999
595.6750	1.44773
595.6500	1.44378
595.6250	1.4466
595.6000	1.44855
595.5750	1.44919
595.5500	1.45289
595.5250	1.45596
595.5000	1.46207
595.4750	1.46101
595.4500	1.4622
595.4250	1.46192
595.4000	1.46005
595.3750	1.45582
595.3500	1.45723
595.3250	1.45835
595.3000	1.45975
595.2750	1.45968
595.2500	1.45972
595.2250	1.45985
595.2000	1.457
595.1750	1.45593
595.1500	1.45783
595.1250	1.45713
595.1000	1.4578
595.0750	1.4588
595.0500	1.46123
595.0250	1.46463
595.0000	1.46448
594.9750	1.46449
594.9500	1.46345
594.9250	1.46043
594.9000	1.45659
594.8750	1.45614
594.8500	1.45586
594.8250	1.45467
594.8000	1.45705
594.7750	1.45366
594.7500	1.45814
594.7250	1.45862
594.7000	1.45835
594.6750	1.45597
594.6500	1.45468
594.6250	1.45615
594.6000	1.45352
594.5750	1.45326
594.5500	1.45284
594.5250	1.45276
594.5000	1.45305
594.4750	1.45111
594.4500	1.45339
594.4250	1.45164
594.4000	1.45355
594.3750	1.45061
594.3500	1.45169
594.3250	1.45176
594.3000	1.45382
594.2750	1.45268
594.2500	1.45336
594.2250	1.45432
594.2000	1.45478
594.1750	1.45336
594.1500	1.45413
594.1250	1.45417
594.1000	1.4542
594.0750	1.45139
594.0500	1.4486
594.0250	1.44537
594.0000	1.44855
593.9750	1.44689
593.9500	1.45014
593.9250	1.45058
593.9000	1.45082
593.8750	1.45489
593.8500	1.45433
593.8250	1.45287
593.8000	1.45013
593.7750	1.44863
593.7500	1.45186
593.7250	1.45357
593.7000	1.45557
593.6750	1.45327
593.6500	1.45391
593.6250	1.45713
593.6000	1.45255
593.5750	1.45022
593.5500	1.44983
593.5250	1.44818
593.5000	1.44735
593.4750	1.44731
593.4500	1.44758
593.4250	1.44838
593.4000	1.44806
593.3750	1.44642
593.3500	1.44734
593.3250	1.44662
593.3000	1.44545
593.2750	1.447
593.2500	1.44399
593.2250	1.44354
593.2000	1.44079
593.1750	1.44106
593.1500	1.43902
593.1250	1.43724
593.1000	1.44
593.0750	1.44084
593.0500	1.43907
593.0250	1.43919
593.0000	1.44028
592.9750	1.44051
592.9500	1.43866
592.9250	1.43611
592.9000	1.43781
592.8750	1.44034
592.8500	1.44012
592.8250	1.43798
592.8000	1.43903
592.7750	1.43893
592.7500	1.4412
592.7250	1.443
592.7000	1.44277
592.6750	1.44178
592.6500	1.44222
592.6250	1.43988
592.6000	1.43968
592.5750	1.43764
592.5500	1.43154
592.5250	1.43188
592.5000	1.43113
592.4750	1.4311
592.4500	1.43003
592.4250	1.42904
592.4000	1.43138
592.3750	1.43146
592.3500	1.42844
592.3250	1.42747
592.3000	1.42879
592.2750	1.42856
592.2500	1.43004
592.2250	1.43099
592.2000	1.43167
592.1750	1.43343
592.1500	1.43223
592.1250	1.43374
592.1000	1.43402
592.0750	1.43304
592.0500	1.43274
592.0250	1.43362
592.0000	1.43196
591.9750	1.43313
591.9500	1.4356
591.9250	1.4373
591.9000	1.43585
591.8750	1.43486
591.8500	1.43651
591.8250	1.43691
591.8000	1.4383
591.7750	1.44013
591.7500	1.44502
591.7250	1.44762
591.7000	1.45198
591.6750	1.4531
591.6500	1.45341
591.6250	1.45179
591.6000	1.4496
591.5750	1.4488
591.5500	1.4492
591.5250	1.4472
591.5000	1.44968
591.4750	1.45191
591.4500	1.45308
591.4250	1.44997
591.4000	1.45142
591.3750	1.45181
591.3500	1.45053
591.3250	1.45277
591.3000	1.4546
591.2750	1.45488
591.2500	1.45489
591.2250	1.45365
591.2000	1.45427
591.1750	1.45481
591.1500	1.45232
591.1250	1.45119
591.1000	1.4521
591.0750	1.44965
591.0500	1.44904
591.0250	1.45076
591.0000	1.45254
590.9750	1.45246
590.9500	1.45183
590.9250	1.45114
590.9000	1.44934
590.8750	1.4499
590.8500	1.44981
590.8250	1.44886
590.8000	1.4508
590.7750	1.45141
590.7500	1.45019
590.7250	1.4485
590.7000	1.44889
590.6750	1.4484
590.6500	1.44756
590.6250	1.4488
590.6000	1.44919
590.5750	1.45083
590.5500	1.45032
590.5250	1.45236
590.5000	1.44925
590.4750	1.44731
590.4500	1.44402
590.4250	1.44396
590.4000	1.44366
590.3750	1.44595
590.3500	1.44702
590.3250	1.4483
590.3000	1.45011
590.2750	1.44865
590.2500	1.44886
590.2250	1.44792
590.2000	1.44512
590.1750	1.44687
590.1500	1.44529
590.1250	1.44846
590.1000	1.44645
590.0750	1.44786
590.0500	1.44816
590.0250	1.44628
590.0000	1.44438
589.9750	1.44093
589.9500	1.44353
589.9250	1.43924
589.9000	1.44073
589.8750	1.44005
589.8500	1.44179
589.8250	1.44278
589.8000	1.44098
589.7750	1.43972
589.7500	1.43868
589.7250	1.43673
589.7000	1.43665
589.6750	1.43909
589.6500	1.44086
589.6250	1.44272
589.6000	1.44531
589.5750	1.44745
589.5500	1.4484
589.5250	1.44672
589.5000	1.44713
589.4750	1.44815
589.4500	1.44675
589.4250	1.44458
589.4000	1.44345
589.3750	1.44133
589.3500	1.44312
589.3250	1.43887
589.3000	1.43373
589.2750	1.43483
589.2500	1.435
589.2250	1.43622
589.2000	1.43689
589.1750	1.43619
589.1500	1.43964
589.1250	1.44035
589.1000	1.44105
589.0750	1.43755
589.0500	1.43679
589.0250	1.43592
589.0000	1.43531
588.9750	1.4361
588.9500	1.43779
588.9250	1.43671
588.9000	1.43532
588.8750	1.43752
588.8500	1.43435
588.8250	1.43591
588.8000	1.43332
588.7750	1.4293
588.7500	1.43149
588.7250	1.43011
588.7000	1.43021
588.6750	1.43162
588.6500	1.43374
588.6250	1.43174
588.6000	1.43167
588.5750	1.4335
588.5500	1.43489
588.5250	1.43434
588.5000	1.43425
588.4750	1.43788
588.4500	1.44048
588.4250	1.44108
588.4000	1.44184
588.3750	1.44352
588.3500	1.44612
588.3250	1.44391
588.3000	1.44385
588.2750	1.44563
588.2500	1.44708
588.2250	1.44516
588.2000	1.44423
588.1750	1.44498
588.1500	1.44776
588.1250	1.44798
588.1000	1.44848
588.0750	1.44913
588.0500	1.45033
588.0250	1.4499
588.0000	1.44802
587.9750	1.44535
587.9500	1.44797
587.9250	1.44952
587.9000	1.44958
587.8750	1.45338
587.8500	1.45153
587.8250	1.45699
587.8000	1.45597
587.7750	1.45599
587.7500	1.45492
587.7250	1.45485
587.7000	1.45472
587.6750	1.45202
587.6500	1.44942
587.6250	1.44757
587.6000	1.44897
587.5750	1.44707
587.5500	1.44998
587.5250	1.45096
587.5000	1.45568
587.4750	1.45778
587.4500	1.45862
587.4250	1.46057
587.4000	1.45805
587.3750	1.45549
587.3500	1.4552
587.3250	1.45296
587.3000	1.44908
587.2750	1.44552
587.2500	1.44533
587.2250	1.44618
587.2000	1.44861
587.1750	1.44464
587.1500	1.44239
587.1250	1.44318
587.1000	1.44621
587.0750	1.44646
587.0500	1.44595
587.0250	1.44822
587.0000	1.44981
586.9750	1.45036
586.9500	1.45024
586.9250	1.44633
586.9000	1.44689
586.8750	1.44471
586.8500	1.44259
586.8250	1.44008
586.8000	1.44065
586.7750	1.44076
586.7500	1.44438
586.7250	1.44517
586.7000	1.44746
586.6750	1.44995
586.6500	1.44738
586.6250	1.44766
586.6000	1.44258
586.5750	1.44298
586.5500	1.44013
586.5250	1.44237
586.5000	1.44361
586.4750	1.44663
586.4500	1.45026
586.4250	1.44693
586.4000	1.4452
586.3750	1.44239
586.3500	1.44027
586.3250	1.43755
586.3000	1.43682
586.2750	1.43648
586.2500	1.43912
586.2250	1.44067
586.2000	1.43995
586.1750	1.44115
586.1500	1.44039
586.1250	1.43902
586.1000	1.44095
586.0750	1.43758
586.0500	1.43613
586.0250	1.43664
586.0000	1.43892
585.9750	1.43936
585.9500	1.43799
585.9250	1.43463
585.9000	1.43534
585.8750	1.43439
585.8500	1.43281
585.8250	1.43145
585.8000	1.43141
585.7750	1.43148
585.7500	1.43191
585.7250	1.43039
585.7000	1.43016
585.6750	1.42928
585.6500	1.42812
585.6250	1.4291
585.6000	1.42557
585.5750	1.42364
585.5500	1.42398
585.5250	1.42599
585.5000	1.42553
585.4750	1.4276
585.4500	1.42802
585.4250	1.43056
585.4000	1.43105
585.3750	1.43009
585.3500	1.43048
585.3250	1.43039
585.3000	1.42759
585.2750	1.42479
585.2500	1.42377
585.2250	1.42309
585.2000	1.42276
585.1750	1.42364
585.1500	1.42039
585.1250	1.42062
585.1000	1.42087
585.0750	1.41945
585.0500	1.41937
585.0250	1.41905
585.0000	1.42004
584.9750	1.42126
584.9500	1.42438
584.9250	1.42757
584.9000	1.42948
584.8750	1.42954
584.8500	1.43313
584.8250	1.43054
584.8000	1.43275
584.7750	1.43154
584.7500	1.43171
584.7250	1.43223
584.7000	1.43053
584.6750	1.43076
584.6500	1.43345
584.6250	1.43792
584.6000	1.4384
584.5750	1.44075
584.5500	1.44076
584.5250	1.44143
584.5000	1.44097
584.4750	1.43934
584.4500	1.43824
584.4250	1.43613
584.4000	1.43839
584.3750	1.4399
584.3500	1.43965
584.3250	1.43957
584.3000	1.43917
584.2750	1.44086
584.2500	1.44026
584.2250	1.44147
584.2000	1.44454
584.1750	1.44443
584.1500	1.44633
584.1250	1.44728
584.1000	1.44479
584.0750	1.44399
584.0500	1.44147
584.0250	1.43798
584.0000	1.43653
583.9750	1.43673
583.9500	1.43246
583.9250	1.43266
583.9000	1.43587
583.8750	1.43734
583.8500	1.43631
583.8250	1.43598
583.8000	1.43737
583.7750	1.44053
583.7500	1.43839
583.7250	1.4365
583.7000	1.43483
583.6750	1.43476
583.6500	1.43713
583.6250	1.43409
583.6000	1.43527
583.5750	1.43597
583.5500	1.43666
583.5250	1.43876
583.5000	1.43723
583.4750	1.43644
583.4500	1.43401
583.4250	1.43655
583.4000	1.43383
583.3750	1.43168
583.3500	1.43328
583.3250	1.43033
583.3000	1.42979
583.2750	1.42825
583.2500	1.42698
583.2250	1.42809
583.2000	1.42783
583.1750	1.42414
583.1500	1.42585
583.1250	1.424
583.1000	1.42753
583.0750	1.42914
583.0500	1.42672
583.0250	1.42787
583.0000	1.42551
582.9750	1.42549
582.9500	1.42689
582.9250	1.42687
582.9000	1.42685
582.8750	1.42763
582.8500	1.4255
582.8250	1.42492
582.8000	1.42157
582.7750	1.42031
582.7500	1.42035
582.7250	1.42003
582.7000	1.42078
582.6750	1.42488
582.6500	1.42471
582.6250	1.42207
582.6000	1.4188
582.5750	1.41433
582.5500	1.41644
582.5250	1.41413
582.5000	1.41278
582.4750	1.41634
582.4500	1.41697
582.4250	1.42375
582.4000	1.42432
582.3750	1.42571
582.3500	1.4265
582.3250	1.4241
582.3000	1.42529
582.2750	1.42207
582.2500	1.4213
582.2250	1.41924
582.2000	1.41815
582.1750	1.41915
582.1500	1.41995
582.1250	1.42225
582.1000	1.42294
582.0750	1.422
582.0500	1.42371
582.0250	1.42237
582.0000	1.42254
581.9750	1.41954
581.9500	1.41669
581.9250	1.4156
581.9000	1.41565
581.8750	1.40991
581.8500	1.41099
581.8250	1.40937
581.8000	1.40878
581.7750	1.4124
581.7500	1.41214
581.7250	1.41322
581.7000	1.41559
581.6750	1.41666
581.6500	1.41953
581.6250	1.42011
581.6000	1.41687
581.5750	1.41899
581.5500	1.41718
581.5250	1.41703
581.5000	1.41659
581.4750	1.41351
581.4500	1.41467
581.4250	1.4138
581.4000	1.41563
581.3750	1.41613
581.3500	1.41904
581.3250	1.41917
581.3000	1.41739
581.2750	1.41851
581.2500	1.41616
581.2250	1.41814
581.2000	1.41609
581.1750	1.41487
581.1500	1.41883
581.1250	1.42082
581.1000	1.42698
581.0750	1.42915
581.0500	1.43045
581.0250	1.43341
581.0000	1.43686
580.9750	1.43564
580.9500	1.4345
580.9250	1.43489
580.9000	1.43129
580.8750	1.43356
580.8500	1.43241
580.8250	1.43429
580.8000	1.43479
580.7750	1.43831
580.7500	1.43697
580.7250	1.43532
580.7000	1.43443
580.6750	1.43366
580.6500	1.43079
580.6250	1.42925
580.6000	1.42903
580.5750	1.43123
580.5500	1.43226
580.5250	1.43159
580.5000	1.43682
580.4750	1.43735
580.4500	1.43904
580.4250	1.43854
580.4000	1.43744
580.3750	1.43701
580.3500	1.43729
580.3250	1.43553
580.3000	1.43415
580.2750	1.43333
580.2500	1.43518
580.2250	1.43755
580.2000	1.43374
580.1750	1.43288
580.1500	1.43418
580.1250	1.43272
580.1000	1.43564
580.0750	1.43425
580.0500	1.4344
580.0250	1.43526
580.0000	1.43547
579.9750	1.4342
579.9500	1.4307
579.9250	1.42951
579.9000	1.42914
579.8750	1.42939
579.8500	1.4266
579.8250	1.43029
579.8000	1.4312
579.7750	1.43162
579.7500	1.43276
579.7250	1.43201
579.7000	1.43058
579.6750	1.42954
579.6500	1.42534
579.6250	1.42486
579.6000	1.42086
579.5750	1.42245
579.5500	1.42175
579.5250	1.42219
579.5000	1.42662
579.4750	1.42681
579.4500	1.42481
579.4250	1.4265
579.4000	1.42599
579.3750	1.42381
579.3500	1.42308
579.3250	1.42058
579.3000	1.42368
579.2750	1.42367
579.2500	1.42632
579.2250	1.42321
579.2000	1.42337
579.1750	1.42199
579.1500	1.41553
579.1250	1.41754
579.1000	1.41276
579.0750	1.41506
579.0500	1.41609
579.0250	1.41407
579.0000	1.41767
578.9750	1.42151
578.9500	1.42333
578.9250	1.42506
578.9000	1.42372
578.8750	1.4246
578.8500	1.42509
578.8250	1.42168
578.8000	1.41833
578.7750	1.4164
578.7500	1.41421
578.7250	1.41555
578.7000	1.41647
578.6750	1.41724
578.6500	1.41602
578.6250	1.4161
578.6000	1.41833
578.5750	1.41745
578.5500	1.4181
578.5250	1.41885
578.5000	1.42095
578.4750	1.42346
578.4500	1.42191
578.4250	1.42035
578.4000	1.42156
578.3750	1.41976
578.3500	1.41676
578.3250	1.41718
578.3000	1.41453
578.2750	1.41773
578.2500	1.41806
578.2250	1.41624
578.2000	1.41221
578.1750	1.41141
578.1500	1.41171
578.1250	1.40997
578.1000	1.40851
578.0750	1.40743
578.0500	1.4094
578.0250	1.41014
578.0000	1.40921
577.9750	1.41003
577.9500	1.41017
577.9250	1.40721
577.9000	1.41158
577.8750	1.41271
577.8500	1.41671
577.8250	1.41872
577.8000	1.4229
577.7750	1.42809
577.7500	1.42977
577.7250	1.43204
577.7000	1.43373
577.6750	1.43179
577.6500	1.42996
577.6250	1.42885
577.6000	1.42579
577.5750	1.42558
577.5500	1.42335
577.5250	1.42754
577.5000	1.42808
577.4750	1.43063
577.4500	1.43279
577.4250	1.43335
577.4000	1.43472
577.3750	1.43188
577.3500	1.43418
577.3250	1.43745
577.3000	1.43575
577.2750	1.43753
577.2500	1.43474
577.2250	1.43552
577.2000	1.43883
577.1750	1.4346
577.1500	1.43306
577.1250	1.43377
577.1000	1.43317
577.0750	1.43167
577.0500	1.42837
577.0250	1.42778
577.0000	1.42799
576.9750	1.42962
576.9500	1.43058
576.9250	1.42979
576.9000	1.43422
576.8750	1.4323
576.8500	1.43342
576.8250	1.42645
576.8000	1.42633
576.7750	1.42639
576.7500	1.42418
576.7250	1.42395
576.7000	1.42332
576.6750	1.42597
576.6500	1.42469
576.6250	1.4242
576.6000	1.42587
576.5750	1.42444
576.5500	1.42319
576.5250	1.423
576.5000	1.42269
576.4750	1.42186
576.4500	1.42161
576.4250	1.42166
576.4000	1.41976
576.3750	1.41769
576.3500	1.41744
576.3250	1.41902
576.3000	1.42187
576.2750	1.41893
576.2500	1.42323
576.2250	1.42596
576.2000	1.42613
576.1750	1.42425
576.1500	1.42232
576.1250	1.42291
576.1000	1.41838
576.0750	1.41679
576.0500	1.41718
576.0250	1.41797
576.0000	1.41788
575.9750	1.41403
575.9500	1.41363
575.9250	1.41378
575.9000	1.41272
575.8750	1.41006
575.8500	1.41127
575.8250	1.41184
575.8000	1.41298
575.7750	1.41175
575.7500	1.41122
575.7250	1.41187
575.7000	1.41061
575.6750	1.41092
575.6500	1.40963
575.6250	1.41067
575.6000	1.41095
575.5750	1.40825
575.5500	1.40566
575.5250	1.40451
575.5000	1.40431
575.4750	1.40336
575.4500	1.40227
575.4250	1.39971
575.4000	1.40293
575.3750	1.40846
575.3500	1.40717
575.3250	1.40841
575.3000	1.41152
575.2750	1.41059
575.2500	1.41036
575.2250	1.41249
575.2000	1.41259
575.1750	1.41037
575.1500	1.41054
575.1250	1.40987
575.1000	1.40859
575.0750	1.40488
575.0500	1.40248
575.0250	1.40493
575.0000	1.40405
574.9750	1.40179
574.9500	1.40055
574.9250	1.39531
574.9000	1.39769
574.8750	1.39304
574.8500	1.39366
574.8250	1.3902
574.8000	1.39355
574.7750	1.39626
574.7500	1.39984
574.7250	1.3995
574.7000	1.40136
574.6750	1.40391
574.6500	1.4098
574.6250	1.41356
574.6000	1.41469
574.5750	1.41638
574.5500	1.41612
574.5250	1.41606
574.5000	1.4147
574.4750	1.41338
574.4500	1.41208
574.4250	1.41229
574.4000	1.41438
574.3750	1.41648
574.3500	1.41545
574.3250	1.41338
574.3000	1.41502
574.2750	1.41145
574.2500	1.41101
574.2250	1.40891
574.2000	1.40872
574.1750	1.40889
574.1500	1.40727
574.1250	1.40837
574.1000	1.41042
574.0750	1.41286
574.0500	1.41631
574.0250	1.41678
574.0000	1.4179
573.9750	1.41873
573.9500	1.41917
573.9250	1.41713
573.9000	1.41413
573.8750	1.41339
573.8500	1.41274
573.8250	1.41256
573.8000	1.41182
573.7750	1.41352
573.7500	1.4121
573.7250	1.41407
573.7000	1.41722
573.6750	1.41565
573.6500	1.4142
573.6250	1.41251
573.6000	1.41029
573.5750	1.41228
573.5500	1.40915
573.5250	1.40538
573.5000	1.40971
573.4750	1.4099
573.4500	1.40825
573.4250	1.40717
573.4000	1.40886
573.3750	1.40951
573.3500	1.40907
573.3250	1.40981
573.3000	1.41107
573.2750	1.41337
573.2500	1.40918
573.2250	1.41089
573.2000	1.41202
573.1750	1.40973
573.1500	1.40865
573.1250	1.40602
573.1000	1.40832
573.0750	1.40831
573.0500	1.40984
573.0250	1.40846
573.0000	1.40739
572.9750	1.40915
572.9500	1.40826
572.9250	1.40935
572.9000	1.40562
572.8750	1.40468
572.8500	1.40342
572.8250	1.40233
572.8000	1.39869
572.7750	1.39972
572.7500	1.4
572.7250	1.39864
572.7000	1.40064
572.6750	1.40155
572.6500	1.40027
572.6250	1.40202
572.6000	1.39885
572.5750	1.39621
572.5500	1.3962
572.5250	1.39498
572.5000	1.39674
572.4750	1.39516
572.4500	1.39217
572.4250	1.39587
572.4000	1.39766
572.3750	1.39682
572.3500	1.39694
572.3250	1.39752
572.3000	1.39877
572.2750	1.39807
572.2500	1.39763
572.2250	1.39893
572.2000	1.39511
572.1750	1.39918
572.1500	1.39816
572.1250	1.39819
572.1000	1.39706
572.0750	1.39601
572.0500	1.39505
572.0250	1.39394
572.0000	1.39352
571.9750	1.39555
571.9500	1.39495
571.9250	1.39718
571.9000	1.39531
571.8750	1.39675
571.8500	1.3948
571.8250	1.39454
571.8000	1.39381
571.7750	1.39299
571.7500	1.39405
571.7250	1.39574
571.7000	1.39362
571.6750	1.39033
571.6500	1.39086
571.6250	1.39014
571.6000	1.38595
571.5750	1.38751
571.5500	1.39281
571.5250	1.39491
571.5000	1.39625
571.4750	1.39912
571.4500	1.40422
571.4250	1.40963
571.4000	1.4114
571.3750	1.41212
571.3500	1.41582
571.3250	1.41461
571.3000	1.41291
571.2750	1.41078
571.2500	1.40696
571.2250	1.40914
571.2000	1.40501
571.1750	1.40657
571.1500	1.41011
571.1250	1.40886
571.1000	1.40756
571.0750	1.40281
571.0500	1.40173
571.0250	1.40292
571.0000	1.39872
570.9750	1.39817
570.9500	1.39856
570.9250	1.40414
570.9000	1.40637
570.8750	1.4063
570.8500	1.40463
570.8250	1.40699
570.8000	1.40759
570.7750	1.40962
570.7500	1.40856
570.7250	1.41099
570.7000	1.41387
570.6750	1.41599
570.6500	1.4152
570.6250	1.41454
570.6000	1.41442
570.5750	1.41554
570.5500	1.41842
570.5250	1.41652
570.5000	1.41559
570.4750	1.41823
570.4500	1.41641
570.4250	1.41385
570.4000	1.40787
570.3750	1.40703
570.3500	1.40925
570.3250	1.40903
570.3000	1.40601
570.2750	1.40511
570.2500	1.409
570.2250	1.40803
570.2000	1.40646
570.1750	1.40765
570.1500	1.4049
570.1250	1.40745
570.1000	1.40898
570.0750	1.40823
570.0500	1.40854
570.0250	1.40309
570.0000	1.40353
569.9750	1.40349
569.9500	1.39811
569.9250	1.39761
569.9000	1.3983
569.8750	1.39943
569.8500	1.40347
569.8250	1.40671
569.8000	1.40948
569.7750	1.41039
569.7500	1.40879
569.7250	1.4085
569.7000	1.40557
569.6750	1.40155
569.6500	1.39825
569.6250	1.39721
569.6000	1.39375
569.5750	1.39551
569.5500	1.3955
569.5250	1.39829
569.5000	1.39848
569.4750	1.40223
569.4500	1.40288
569.4250	1.40308
569.4000	1.40054
569.3750	1.39877
569.3500	1.39512
569.3250	1.39191
569.3000	1.39105
569.2750	1.39111
569.2500	1.3923
569.2250	1.39204
569.2000	1.39612
569.1750	1.39924
569.1500	1.39904
569.1250	1.39919
569.1000	1.3981
569.0750	1.39911
569.0500	1.39879
569.0250	1.39371
569.0000	1.39363
568.9750	1.39387
568.9500	1.39096
568.9250	1.39035
568.9000	1.39239
568.8750	1.39224
568.8500	1.39284
568.8250	1.39069
568.8000	1.38889
568.7750	1.38829
568.7500	1.389
568.7250	1.38712
568.7000	1.38534
568.6750	1.38312
568.6500	1.38594
568.6250	1.39104
568.6000	1.39256
568.5750	1.39365
568.5500	1.39712
568.5250	1.40289
568.5000	1.40639
568.4750	1.40527
568.4500	1.40606
568.4250	1.40757
568.4000	1.4086
568.3750	1.40467
568.3500	1.40156
568.3250	1.40351
568.3000	1.40147
568.2750	1.40018
568.2500	1.39775
568.2250	1.39877
568.2000	1.39923
568.1750	1.40114
568.1500	1.40271
568.1250	1.39921
568.1000	1.39913
568.0750	1.40047
568.0500	1.40198
568.0250	1.39707
568.0000	1.39344
567.9750	1.3956
567.9500	1.39436
567.9250	1.39269
567.9000	1.38941
567.8750	1.39315
567.8500	1.39423
567.8250	1.39594
567.8000	1.39881
567.7750	1.40213
567.7500	1.40462
567.7250	1.40636
567.7000	1.40587
567.6750	1.40665
567.6500	1.40284
567.6250	1.40186
567.6000	1.4031
567.5750	1.40501
567.5500	1.40556
567.5250	1.40567
567.5000	1.40795
567.4750	1.40879
567.4500	1.40953
567.4250	1.40758
567.4000	1.40733
567.3750	1.40636
567.3500	1.40756
567.3250	1.40812
567.3000	1.40756
567.2750	1.40601
567.2500	1.40451
567.2250	1.4029
567.2000	1.40199
567.1750	1.39953
567.1500	1.40127
567.1250	1.40102
567.1000	1.40238
567.0750	1.40401
567.0500	1.4032
567.0250	1.40327
567.0000	1.4039
566.9750	1.40272
566.9500	1.40521
566.9250	1.39927
566.9000	1.39898
566.8750	1.39785
566.8500	1.39357
566.8250	1.39167
566.8000	1.38872
566.7750	1.38975
566.7500	1.39134
566.7250	1.3877
566.7000	1.39059
566.6750	1.39147
566.6500	1.38875
566.6250	1.3867
566.6000	1.38593
566.5750	1.38634
566.5500	1.38697
566.5250	1.38582
566.5000	1.38619
566.4750	1.38851
566.4500	1.38763
566.4250	1.38794
566.4000	1.38678
566.3750	1.38974
566.3500	1.38996
566.3250	1.38973
566.3000	1.38966
566.2750	1.38755
566.2500	1.38685
566.2250	1.38604
566.2000	1.3847
566.1750	1.38419
566.1500	1.38109
566.1250	1.38053
566.1000	1.3832
566.0750	1.38094
566.0500	1.38089
566.0250	1.38174
566.0000	1.38225
565.9750	1.37781
565.9500	1.37429
565.9250	1.37223
565.9000	1.37245
565.8750	1.37148
565.8500	1.37087
565.8250	1.37151
565.8000	1.37229
565.7750	1.37374
565.7500	1.37105
565.7250	1.37159
565.7000	1.37382
565.6750	1.37697
565.6500	1.38061
565.6250	1.38415
565.6000	1.38685
565.5750	1.38826
565.5500	1.38673
565.5250	1.38533
565.5000	1.38848
565.4750	1.38543
565.4500	1.38423
565.4250	1.38419
565.4000	1.38363
565.3750	1.38833
565.3500	1.38932
565.3250	1.38827
565.3000	1.3888
565.2750	1.38793
565.2500	1.38881
565.2250	1.38665
565.2000	1.38622
565.1750	1.38496
565.1500	1.38572
565.1250	1.38241
565.1000	1.38479
565.0750	1.38155
565.0500	1.37949
565.0250	1.37865
565.0000	1.37809
564.9750	1.37927
564.9500	1.37918
564.9250	1.37791
564.9000	1.38122
564.8750	1.38306
564.8500	1.38306
564.8250	1.38301
564.8000	1.38684
564.7750	1.3891
564.7500	1.38939
564.7250	1.3907
564.7000	1.39282
564.6750	1.39592
564.6500	1.39439
564.6250	1.39468
564.6000	1.39662
564.5750	1.39479
564.5500	1.39429
564.5250	1.39236
564.5000	1.39097
564.4750	1.39211
564.4500	1.39227
564.4250	1.39368
564.4000	1.39469
564.3750	1.39446
564.3500	1.39466
564.3250	1.39398
564.3000	1.39287
564.2750	1.39042
564.2500	1.3854
564.2250	1.38506
564.2000	1.38584
564.1750	1.3859
564.1500	1.38515
564.1250	1.38874
564.1000	1.38892
564.0750	1.38863
564.0500	1.39029
564.0250	1.38987
564.0000	1.38731
563.9750	1.38651
563.9500	1.38537
563.9250	1.38852
563.9000	1.38607
563.8750	1.3852
563.8500	1.38537
563.8250	1.3872
563.8000	1.3894
563.7750	1.38674
563.7500	1.38738
563.7250	1.38505
563.7000	1.38585
563.6750	1.3834
563.6500	1.38301
563.6250	1.38405
563.6000	1.38587
563.5750	1.38711
563.5500	1.3867
563.5250	1.38405
563.5000	1.38476
563.4750	1.38194
563.4500	1.37963
563.4250	1.37901
563.4000	1.37756
563.3750	1.37574
563.3500	1.37529
563.3250	1.37031
563.3000	1.37166
563.2750	1.37001
563.2500	1.36641
563.2250	1.36922
563.2000	1.37145
563.1750	1.37126
563.1500	1.37394
563.1250	1.37351
563.1000	1.37298
563.0750	1.37073
563.0500	1.36991
563.0250	1.37168
563.0000	1.37212
562.9750	1.37149
562.9500	1.37211
562.9250	1.37316
562.9000	1.37079
562.8750	1.36978
562.8500	1.3696
562.8250	1.37335
562.8000	1.37329
562.7750	1.37635
562.7500	1.38103
562.7250	1.38453
562.7000	1.38666
562.6750	1.38747
562.6500	1.38564
562.6250	1.38858
562.6000	1.38944
562.5750	1.3861
562.5500	1.3855
562.5250	1.38323
562.5000	1.38071
562.4750	1.38208
562.4500	1.38045
562.4250	1.3794
562.4000	1.37833
562.3750	1.37782
562.3500	1.37909
562.3250	1.37929
562.3000	1.37767
562.2750	1.37647
562.2500	1.37615
562.2250	1.37591
562.2000	1.37489
562.1750	1.37783
562.1500	1.37756
562.1250	1.37588
562.1000	1.37689
562.0750	1.37804
562.0500	1.37954
562.0250	1.37782
562.0000	1.3771
561.9750	1.37536
561.9500	1.37576
561.9250	1.37375
561.9000	1.37356
561.8750	1.37285
561.8500	1.37424
561.8250	1.37507
561.8000	1.37718
561.7750	1.38399
561.7500	1.38721
561.7250	1.39069
561.7000	1.39367
561.6750	1.39401
561.6500	1.39678
561.6250	1.39511
561.6000	1.39347
561.5750	1.39276
561.5500	1.39453
561.5250	1.39215
561.5000	1.39046
561.4750	1.3902
561.4500	1.39005
561.4250	1.38809
561.4000	1.3836
561.3750	1.38612
561.3500	1.38668
561.3250	1.38673
561.3000	1.38707
561.2750	1.38744
561.2500	1.38848
561.2250	1.38486
561.2000	1.38236
561.1750	1.38225
561.1500	1.38349
561.1250	1.38149
561.1000	1.38426
561.0750	1.38321
561.0500	1.38613
561.0250	1.38823
561.0000	1.38672
560.9750	1.38572
560.9500	1.38314
560.9250	1.38256
560.9000	1.38461
560.8750	1.3806
560.8500	1.3806
560.8250	1.38158
560.8000	1.38406
560.7750	1.38298
560.7500	1.38263
560.7250	1.38113
560.7000	1.37887
560.6750	1.38008
560.6500	1.37804
560.6250	1.37662
560.6000	1.37503
560.5750	1.37771
560.5500	1.37612
560.5250	1.37425
560.5000	1.37499
560.4750	1.37482
560.4500	1.37379
560.4250	1.37439
560.4000	1.37382
560.3750	1.37273
560.3500	1.37127
560.3250	1.37099
560.3000	1.37025
560.2750	1.3692
560.2500	1.36931
560.2250	1.36861
560.2000	1.36907
560.1750	1.36851
560.1500	1.36668
560.1250	1.36766
560.1000	1.36979
560.0750	1.37055
560.0500	1.37166
560.0250	1.3753
560.0000	1.37761
559.9750	1.38227
559.9500	1.3829
559.9250	1.38828
559.9000	1.38691
559.8750	1.38579
559.8500	1.38677
559.8250	1.38503
559.8000	1.38651
559.7750	1.38329
559.7500	1.38249
559.7250	1.38489
559.7000	1.38418
559.6750	1.38253
559.6500	1.37924
559.6250	1.37881
559.6000	1.37864
559.5750	1.37608
559.5500	1.37319
559.5250	1.37458
559.5000	1.37516
559.4750	1.37418
559.4500	1.37407
559.4250	1.37324
559.4000	1.37483
559.3750	1.37596
559.3500	1.37835
559.3250	1.37856
559.3000	1.38023
559.2750	1.38422
559.2500	1.38082
559.2250	1.38002
559.2000	1.37561
559.1750	1.37382
559.1500	1.37456
559.1250	1.3706
559.1000	1.36936
559.0750	1.36941
559.0500	1.37108
559.0250	1.36841
559.0000	1.36979
558.9750	1.37172
558.9500	1.37481
558.9250	1.37818
558.9000	1.38162
558.8750	1.38477
558.8500	1.38781
558.8250	1.39338
558.8000	1.39203
558.7750	1.39374
558.7500	1.39566
558.7250	1.39639
558.7000	1.39717
558.6750	1.39302
558.6500	1.39078
558.6250	1.39028
558.6000	1.38755
558.5750	1.38443
558.5500	1.38489
558.5250	1.38153
558.5000	1.38148
558.4750	1.38189
558.4500	1.38245
558.4250	1.38297
558.4000	1.38182
558.3750	1.38333
558.3500	1.38173
558.3250	1.38376
558.3000	1.38415
558.2750	1.38406
558.2500	1.38319
558.2250	1.38204
558.2000	1.383
558.1750	1.38132
558.1500	1.38047
558.1250	1.37812
558.1000	1.37853
558.0750	1.37798
558.0500	1.37804
558.0250	1.37753
558.0000	1.37702
557.9750	1.37891
557.9500	1.37883
557.9250	1.37615
557.9000	1.37641
557.8750	1.37663
557.8500	1.375
557.8250	1.375
557.8000	1.37202
557.7750	1.37248
557.7500	1.37046
557.7250	1.36877
557.7000	1.36766
557.6750	1.36961
557.6500	1.37161
557.6250	1.3703
557.6000	1.36708
557.5750	1.36717
557.5500	1.36161
557.5250	1.36158
557.5000	1.3607
557.4750	1.36037
557.4500	1.36271
557.4250	1.36495
557.4000	1.36701
557.3750	1.36815
557.3500	1.37146
557.3250	1.37513
557.3000	1.37241
557.2750	1.37328
557.2500	1.373
557.2250	1.37489
557.2000	1.37252
557.1750	1.37019
557.1500	1.3692
557.1250	1.36886
557.1000	1.3684
557.0750	1.36793
557.0500	1.36917
557.0250	1.36627
557.0000	1.36815
556.9750	1.37021
556.9500	1.37179
556.9250	1.37017
556.9000	1.36989
556.8750	1.36916
556.8500	1.36947
556.8250	1.36966
556.8000	1.36737
556.7750	1.37041
556.7500	1.37294
556.7250	1.37452
556.7000	1.37176
556.6750	1.37018
556.6500	1.36559
556.6250	1.36166
556.6000	1.3586
556.5750	1.35771
556.5500	1.3575
556.5250	1.35503
556.5000	1.35815
556.4750	1.35848
556.4500	1.35961
556.4250	1.35807
556.4000	1.35815
556.3750	1.35625
556.3500	1.35359
556.3250	1.35028
556.3000	1.35055
556.2750	1.34913
556.2500	1.34796
556.2250	1.34845
556.2000	1.35194
556.1750	1.35797
556.1500	1.35786
556.1250	1.36158
556.1000	1.36635
556.0750	1.37107
556.0500	1.37416
556.0250	1.37549
556.0000	1.37641
555.9750	1.37547
555.9500	1.37338
555.9250	1.37437
555.9000	1.37386
555.8750	1.371
555.8500	1.37454
555.8250	1.37418
555.8000	1.37451
555.7750	1.37441
555.7500	1.37477
555.7250	1.37528
555.7000	1.37607
555.6750	1.37342
555.6500	1.37095
555.6250	1.37054
555.6000	1.36739
555.5750	1.36624
555.5500	1.36758
555.5250	1.36865
555.5000	1.36919
555.4750	1.36948
555.4500	1.37016
555.4250	1.36977
555.4000	1.36679
555.3750	1.36517
555.3500	1.36412
555.3250	1.36331
555.3000	1.36397
555.2750	1.36319
555.2500	1.36221
555.2250	1.36252
555.2000	1.36134
555.1750	1.35994
555.1500	1.36017
555.1250	1.35908
555.1000	1.35966
555.0750	1.35985
555.0500	1.35969
555.0250	1.35914
555.0000	1.35686
554.9750	1.35738
554.9500	1.35586
554.9250	1.35716
554.9000	1.3552
554.8750	1.35231
554.8500	1.35451
554.8250	1.35596
554.8000	1.35889
554.7750	1.36052
554.7500	1.36008
554.7250	1.36283
554.7000	1.36491
554.6750	1.36661
554.6500	1.36667
554.6250	1.36463
554.6000	1.36751
554.5750	1.36854
554.5500	1.36816
554.5250	1.36558
554.5000	1.3662
554.4750	1.36377
554.4500	1.36495
554.4250	1.36297
554.4000	1.36278
554.3750	1.36472
554.3500	1.36196
554.3250	1.36007
554.3000	1.35915
554.2750	1.35968
554.2500	1.35936
554.2250	1.35794
554.2000	1.3586
554.1750	1.3612
554.1500	1.36149
554.1250	1.35911
554.1000	1.35859
554.0750	1.35524
554.0500	1.35435
554.0250	1.35701
554.0000	1.35388
553.9750	1.35492
553.9500	1.3554
553.9250	1.35422
553.9000	1.35607
553.8750	1.3547
553.8500	1.35467
553.8250	1.35301
553.8000	1.35162
553.7750	1.3485
553.7500	1.34915
553.7250	1.34638
553.7000	1.34867
553.6750	1.34903
553.6500	1.34886
553.6250	1.34791
553.6000	1.34533
553.5750	1.3415
553.5500	1.34061
553.5250	1.34082
553.5000	1.33854
553.4750	1.34543
553.4500	1.34841
553.4250	1.35552
553.4000	1.36284
553.3750	1.36475
553.3500	1.37166
553.3250	1.37268
553.3000	1.37496
553.2750	1.37522
553.2500	1.37572
553.2250	1.3741
553.2000	1.37579
553.1750	1.37319
553.1500	1.37475
553.1250	1.37586
553.1000	1.37305
553.0750	1.375
553.0500	1.37391
553.0250	1.37281
553.0000	1.37109
552.9750	1.37053
552.9500	1.36792
552.9250	1.36834
552.9000	1.36739
552.8750	1.36374
552.8500	1.3628
552.8250	1.36508
552.8000	1.36468
552.7750	1.36443
552.7500	1.36424
552.7250	1.3694
552.7000	1.37156
552.6750	1.3677
552.6500	1.36829
552.6250	1.36839
552.6000	1.36919
552.5750	1.36573
552.5500	1.36565
552.5250	1.36335
552.5000	1.36426
552.4750	1.36319
552.4500	1.35922
552.4250	1.35676
552.4000	1.35543
552.3750	1.35684
552.3500	1.35959
552.3250	1.35809
552.3000	1.36048
552.2750	1.36467
552.2500	1.36958
552.2250	1.36964
552.2000	1.36937
552.1750	1.36852
552.1500	1.3683
552.1250	1.37104
552.1000	1.36941
552.0750	1.36803
552.0500	1.36658
552.0250	1.36692
552.0000	1.36674
551.9750	1.36619
551.9500	1.36512
551.9250	1.36869
551.9000	1.3729
551.8750	1.37121
551.8500	1.37149
551.8250	1.37192
551.8000	1.36838
551.7750	1.36373
551.7500	1.36074
551.7250	1.35816
551.7000	1.35928
551.6750	1.36105
551.6500	1.36114
551.6250	1.36206
551.6000	1.36291
551.5750	1.36198
551.5500	1.36127
551.5250	1.35904
551.5000	1.357
551.4750	1.35507
551.4500	1.35418
551.4250	1.35153
551.4000	1.35239
551.3750	1.35256
551.3500	1.35305
551.3250	1.35423
551.3000	1.35305
551.2750	1.35592
551.2500	1.35677
551.2250	1.35237
551.2000	1.35245
551.1750	1.35097
551.1500	1.34906
551.1250	1.34888
551.1000	1.34956
551.0750	1.34846
551.0500	1.34604
551.0250	1.34304
551.0000	1.34438
550.9750	1.34002
550.9500	1.33897
550.9250	1.33768
550.9000	1.33961
550.8750	1.34466
550.8500	1.34564
550.8250	1.34829
550.8000	1.35618
550.7750	1.36298
550.7500	1.36761
550.7250	1.36926
550.7000	1.37108
550.6750	1.37162
550.6500	1.37229
550.6250	1.37332
550.6000	1.37388
550.5750	1.37346
550.5500	1.37115
550.5250	1.36984
550.5000	1.36541
550.4750	1.36439
550.4500	1.3605
550.4250	1.36205
550.4000	1.36295
550.3750	1.36604
550.3500	1.36718
550.3250	1.36863
550.3000	1.36976
550.2750	1.36724
550.2500	1.36629
550.2250	1.36496
550.2000	1.36237
550.1750	1.36312
550.1500	1.35881
550.1250	1.362
550.1000	1.36146
550.0750	1.36239
550.0500	1.36135
550.0250	1.3601
550.0000	1.36078
549.9750	1.35884
549.9500	1.35849
549.9250	1.35728
549.9000	1.3603
549.8750	1.36408
549.8500	1.3639
549.8250	1.36647
549.8000	1.36399
549.7750	1.36451
549.7500	1.36374
549.7250	1.36216
549.7000	1.3615
549.6750	1.36358
549.6500	1.3638
549.6250	1.36375
549.6000	1.36524
549.5750	1.36477
549.5500	1.36454
549.5250	1.35881
549.5000	1.36154
549.4750	1.36398
549.4500	1.36378
549.4250	1.36308
549.4000	1.36213
549.3750	1.36191
549.3500	1.3592
549.3250	1.35504
549.3000	1.35496
549.2750	1.35595
549.2500	1.35394
549.2250	1.35595
549.2000	1.35606
549.1750	1.35314
549.1500	1.35492
549.1250	1.34877
549.1000	1.34876
549.0750	1.34625
549.0500	1.34547
549.0250	1.34808
549.0000	1.34694
548.9750	1.34538
548.9500	1.34244
548.9250	1.34192
548.9000	1.3437
548.8750	1.34102
548.8500	1.34073
548.8250	1.34158
548.8000	1.34333
548.7750	1.3442
548.7500	1.34152
548.7250	1.33984
548.7000	1.33926
548.6750	1.3391
548.6500	1.33667
548.6250	1.33604
548.6000	1.33367
548.5750	1.33663
548.5500	1.33354
548.5250	1.33252
548.5000	1.33229
548.4750	1.33088
548.4500	1.32817
548.4250	1.32886
548.4000	1.32885
548.3750	1.32943
548.3500	1.32707
548.3250	1.32849
548.3000	1.33252
548.2750	1.33781
548.2500	1.34248
548.2250	1.34879
548.2000	1.3549
548.1750	1.35831
548.1500	1.36028
548.1250	1.35854
548.1000	1.35729
548.0750	1.35725
548.0500	1.35499
548.0250	1.35748
548.0000	1.35935
547.9750	1.35985
547.9500	1.35915
547.9250	1.35982
547.9000	1.36052
547.8750	1.35996
547.8500	1.35838
547.8250	1.35751
547.8000	1.35616
547.7750	1.3528
547.7500	1.35491
547.7250	1.35245
547.7000	1.35146
547.6750	1.35273
547.6500	1.35208
547.6250	1.3503
547.6000	1.34798
547.5750	1.34712
547.5500	1.34579
547.5250	1.34284
547.5000	1.34269
547.4750	1.34365
547.4500	1.34259
547.4250	1.34509
547.4000	1.34627
547.3750	1.34753
547.3500	1.34779
547.3250	1.34881
547.3000	1.35114
547.2750	1.34959
547.2500	1.34706
547.2250	1.34679
547.2000	1.34663
547.1750	1.34688
547.1500	1.34618
547.1250	1.34823
547.1000	1.35273
547.0750	1.35122
547.0500	1.35118
547.0250	1.35023
547.0000	1.34761
546.9750	1.34574
546.9500	1.34205
546.9250	1.34122
546.9000	1.34179
546.8750	1.34107
546.8500	1.33871
546.8250	1.34244
546.8000	1.34392
546.7750	1.34219
546.7500	1.34352
546.7250	1.34175
546.7000	1.3413
546.6750	1.33911
546.6500	1.33598
546.6250	1.33296
546.6000	1.33382
546.5750	1.33137
546.5500	1.33178
546.5250	1.33292
546.5000	1.33122
546.4750	1.33098
546.4500	1.32841
546.4250	1.32681
546.4000	1.32686
546.3750	1.32699
546.3500	1.3283
546.3250	1.32784
546.3000	1.32483
546.2750	1.32447
546.2500	1.32389
546.2250	1.32224
546.2000	1.32353
546.1750	1.3225
546.1500	1.32123
546.1250	1.32202
546.1000	1.32085
546.0750	1.32007
546.0500	1.31937
546.0250	1.31711
546.0000	1.31746
545.9750	1.31961
545.9500	1.316
545.9250	1.3152
545.9000	1.31446
545.8750	1.31552
545.8500	1.31697
545.8250	1.32175
545.8000	1.32687
545.7750	1.33272
545.7500	1.3374
545.7250	1.3425
545.7000	1.34704
545.6750	1.3512
545.6500	1.35335
545.6250	1.35214
545.6000	1.35365
545.5750	1.35268
545.5500	1.35221
545.5250	1.35357
545.5000	1.35096
545.4750	1.35221
545.4500	1.35328
545.4250	1.35049
545.4000	1.34876
545.3750	1.34787
545.3500	1.34637
545.3250	1.3436
545.3000	1.34452
545.2750	1.34661
545.2500	1.34787
545.2250	1.34726
545.2000	1.34959
545.1750	1.35048
545.1500	1.3495
545.1250	1.34935
545.1000	1.34741
545.0750	1.34635
545.0500	1.34579
545.0250	1.34054
545.0000	1.34216
544.9750	1.34231
544.9500	1.34339
544.9250	1.34334
544.9000	1.34463
544.8750	1.34424
544.8500	1.34117
544.8250	1.3378
544.8000	1.3373
544.7750	1.33552
544.7500	1.33744
544.7250	1.33631
544.7000	1.33994
544.6750	1.34201
544.6500	1.34273
544.6250	1.34307
544.6000	1.3412
544.5750	1.34139
544.5500	1.33942
544.5250	1.34049
544.5000	1.34062
544.4750	1.34079
544.4500	1.34169
544.4250	1.34017
544.4000	1.33989
544.3750	1.33785
544.3500	1.33657
544.3250	1.33792
544.3000	1.33433
544.2750	1.33307
544.2500	1.33275
544.2250	1.3314
544.2000	1.33188
544.1750	1.33043
544.1500	1.33172
544.1250	1.33251
544.1000	1.33159
544.0750	1.33417
544.0500	1.33327
544.0250	1.33238
544.0000	1.32931
543.9750	1.32576
543.9500	1.32831
543.9250	1.32525
543.9000	1.32605
543.8750	1.32586
543.8500	1.32463
543.8250	1.32496
543.8000	1.32666
543.7750	1.32502
543.7500	1.32562
543.7250	1.32135
543.7000	1.31996
543.6750	1.32117
543.6500	1.32107
543.6250	1.31814
543.6000	1.31789
543.5750	1.31851
543.5500	1.31769
543.5250	1.31454
543.5000	1.31573
543.4750	1.32083
543.4500	1.32153
543.4250	1.32954
543.4000	1.33446
543.3750	1.34045
543.3500	1.34448
543.3250	1.34635
543.3000	1.3485
543.2750	1.34927
543.2500	1.35205
543.2250	1.35455
543.2000	1.35427
543.1750	1.35416
543.1500	1.35478
543.1250	1.35695
543.1000	1.35616
543.0750	1.35353
543.0500	1.35214
543.0250	1.35167
543.0000	1.35273
542.9750	1.35104
542.9500	1.34904
542.9250	1.34978
542.9000	1.3534
542.8750	1.35339
542.8500	1.35521
542.8250	1.35835
542.8000	1.36142
542.7750	1.36133
542.7500	1.35865
542.7250	1.35836
542.7000	1.35757
542.6750	1.35598
542.6500	1.35594
542.6250	1.35286
542.6000	1.3552
542.5750	1.3522
542.5500	1.35024
542.5250	1.34911
542.5000	1.34442
542.4750	1.34441
542.4500	1.34422
542.4250	1.34172
542.4000	1.34478
542.3750	1.34595
542.3500	1.34602
542.3250	1.34273
542.3000	1.34299
542.2750	1.34143
542.2500	1.3411
542.2250	1.33545
542.2000	1.33402
542.1750	1.33467
542.1500	1.33347
542.1250	1.33096
542.1000	1.33248
542.0750	1.33186
542.0500	1.3297
542.0250	1.33107
542.0000	1.33345
541.9750	1.33376
541.9500	1.33159
541.9250	1.33131
541.9000	1.33024
541.8750	1.33088
541.8500	1.32664
541.8250	1.32396
541.8000	1.32237
541.7750	1.32023
541.7500	1.31982
541.7250	1.31773
541.7000	1.31737
541.6750	1.31744
541.6500	1.32138
541.6250	1.32185
541.6000	1.32124
541.5750	1.32342
541.5500	1.32282
541.5250	1.32255
541.5000	1.32174
541.4750	1.32022
541.4500	1.31953
541.4250	1.31852
541.4000	1.31966
541.3750	1.31743
541.3500	1.31352
541.3250	1.31513
541.3000	1.31376
541.2750	1.31474
541.2500	1.31414
541.2250	1.31349
541.2000	1.32009
541.1750	1.32321
541.1500	1.32833
541.1250	1.33202
541.1000	1.33722
541.0750	1.3432
541.0500	1.34696
541.0250	1.35048
541.0000	1.35075
540.9750	1.35392
540.9500	1.35655
540.9250	1.35618
540.9000	1.35672
540.8750	1.3528
540.8500	1.35246
540.8250	1.35302
540.8000	1.34733
540.7750	1.34665
540.7500	1.34481
540.7250	1.34481
540.7000	1.34549
540.6750	1.34348
540.6500	1.34577
540.6250	1.34734
540.6000	1.34825
540.5750	1.34821
540.5500	1.34773
540.5250	1.34479
540.5000	1.34597
540.4750	1.3452
540.4500	1.34272
540.4250	1.34154
540.4000	1.34069
540.3750	1.33969
540.3500	1.34121
540.3250	1.33784
540.3000	1.33849
540.2750	1.33773
540.2500	1.33605
540.2250	1.33683
540.2000	1.33414
540.1750	1.33234
540.1500	1.33106
540.1250	1.33129
540.1000	1.33143
540.0750	1.33457
540.0500	1.33334
540.0250	1.33379
540.0000	1.33298
539.9750	1.33466
539.9500	1.33179
539.9250	1.33071
539.9000	1.32773
539.8750	1.32443
539.8500	1.32509
539.8250	1.32402
539.8000	1.32062
539.7750	1.3218
539.7500	1.3208
539.7250	1.32052
539.7000	1.3164
539.6750	1.31497
539.6500	1.31582
539.6250	1.31376
539.6000	1.31143
539.5750	1.31103
539.5500	1.31113
539.5250	1.31347
539.5000	1.31619
539.4750	1.31384
539.4500	1.31324
539.4250	1.31433
539.4000	1.31692
539.3750	1.31414
539.3500	1.31347
539.3250	1.31211
539.3000	1.31347
539.2750	1.30907
539.2500	1.30426
539.2250	1.30477
539.2000	1.30548
539.1750	1.3051
539.1500	1.30214
539.1250	1.30384
539.1000	1.30176
539.0750	1.30179
539.0500	1.29866
539.0250	1.30034
539.0000	1.30379
538.9750	1.30964
538.9500	1.31558
538.9250	1.31979
538.9000	1.33142
538.8750	1.33948
538.8500	1.34214
538.8250	1.34406
538.8000	1.34645
538.7750	1.34695
538.7500	1.34535
538.7250	1.34244
538.7000	1.33899
538.6750	1.33966
538.6500	1.33736
538.6250	1.33769
538.6000	1.33475
538.5750	1.33488
538.5500	1.33544
538.5250	1.33792
538.5000	1.33947
538.4750	1.33718
538.4500	1.33902
538.4250	1.33748
538.4000	1.33831
538.3750	1.33505
538.3500	1.33331
538.3250	1.33287
538.3000	1.33353
538.2750	1.33354
538.2500	1.33224
538.2250	1.33232
538.2000	1.32943
538.1750	1.33054
538.1500	1.32752
538.1250	1.32723
538.1000	1.32921
538.0750	1.32691
538.0500	1.32781
538.0250	1.33038
538.0000	1.33096
537.9750	1.32919
537.9500	1.32733
537.9250	1.32991
537.9000	1.33125
537.8750	1.32718
537.8500	1.32788
537.8250	1.32619
537.8000	1.32574
537.7750	1.32388
537.7500	1.32283
537.7250	1.3209
537.7000	1.31819
537.6750	1.31982
537.6500	1.3204
537.6250	1.32208
537.6000	1.3209
537.5750	1.32014
537.5500	1.32406
537.5250	1.32153
537.5000	1.31926
537.4750	1.31866
537.4500	1.32019
537.4250	1.31788
537.4000	1.31606
537.3750	1.31362
537.3500	1.31177
537.3250	1.30991
537.3000	1.30805
537.2750	1.30669
537.2500	1.30523
537.2250	1.30679
537.2000	1.31066
537.1750	1.31268
537.1500	1.31112
537.1250	1.30928
537.1000	1.3085
537.0750	1.30508
537.0500	1.30374
537.0250	1.3029
537.0000	1.30414
536.9750	1.30556
536.9500	1.30454
536.9250	1.30707
536.9000	1.30579
536.8750	1.30935
536.8500	1.31408
536.8250	1.31597
536.8000	1.32248
536.7750	1.32553
536.7500	1.33313
536.7250	1.33518
536.7000	1.3402
536.6750	1.3383
536.6500	1.34254
536.6250	1.3446
536.6000	1.34349
536.5750	1.3441
536.5500	1.34058
536.5250	1.34197
536.5000	1.34267
536.4750	1.33845
536.4500	1.33751
536.4250	1.33622
536.4000	1.33412
536.3750	1.33378
536.3500	1.33008
536.3250	1.33018
536.3000	1.33201
536.2750	1.33021
536.2500	1.33157
536.2250	1.33375
536.2000	1.33138
536.1750	1.33031
536.1500	1.33044
536.1250	1.32607
536.1000	1.32444
536.0750	1.32295
536.0500	1.32312
536.0250	1.32425
536.0000	1.3229
535.9750	1.32536
535.9500	1.32566
535.9250	1.3245
535.9000	1.32778
535.8750	1.32933
535.8500	1.3276
535.8250	1.32871
535.8000	1.32938
535.7750	1.32931
535.7500	1.32712
535.7250	1.3248
535.7000	1.32585
535.6750	1.32477
535.6500	1.32343
535.6250	1.32586
535.6000	1.32437
535.5750	1.32471
535.5500	1.32302
535.5250	1.31954
535.5000	1.31869
535.4750	1.31679
535.4500	1.31715
535.4250	1.31746
535.4000	1.31678
535.3750	1.31501
535.3500	1.31248
535.3250	1.3095
535.3000	1.31209
535.2750	1.30876
535.2500	1.30832
535.2250	1.31019
535.2000	1.31167
535.1750	1.31081
535.1500	1.31107
535.1250	1.31047
535.1000	1.31205
535.0750	1.3108
535.0500	1.31094
535.0250	1.31347
535.0000	1.31397
534.9750	1.31137
534.9500	1.31032
534.9250	1.30862
534.9000	1.30505
534.8750	1.30485
534.8500	1.30824
534.8250	1.31079
534.8000	1.31542
534.7750	1.32136
534.7500	1.32592
534.7250	1.33053
534.7000	1.33537
534.6750	1.33613
534.6500	1.33963
534.6250	1.33779
534.6000	1.33607
534.5750	1.33976
534.5500	1.33912
534.5250	1.337
534.5000	1.33559
534.4750	1.33791
534.4500	1.3405
534.4250	1.33682
534.4000	1.33703
534.3750	1.34014
534.3500	1.34128
534.3250	1.34045
534.3000	1.34328
534.2750	1.34503
534.2500	1.34399
534.2250	1.34141
534.2000	1.34065
534.1750	1.33738
534.1500	1.33399
534.1250	1.32907
534.1000	1.32668
534.0750	1.3257
534.0500	1.32832
534.0250	1.32751
534.0000	1.32728
533.9750	1.32622
533.9500	1.32834
533.9250	1.32707
533.9000	1.32798
533.8750	1.32612
533.8500	1.3263
533.8250	1.32774
533.8000	1.32652
533.7750	1.3254
533.7500	1.32132
533.7250	1.31915
533.7000	1.31632
533.6750	1.31672
533.6500	1.31688
533.6250	1.31452
533.6000	1.31525
533.5750	1.31631
533.5500	1.31883
533.5250	1.31444
533.5000	1.31353
533.4750	1.31358
533.4500	1.31543
533.4250	1.31435
533.4000	1.31213
533.3750	1.31363
533.3500	1.31108
533.3250	1.31154
533.3000	1.31103
533.2750	1.31128
533.2500	1.31089
533.2250	1.31126
533.2000	1.31223
533.1750	1.30954
533.1500	1.30791
533.1250	1.30574
533.1000	1.30191
533.0750	1.30019
533.0500	1.30064
533.0250	1.29992
533.0000	1.30009
532.9750	1.29951
532.9500	1.2975
532.9250	1.29859
532.9000	1.30054
532.8750	1.30274
532.8500	1.30471
532.8250	1.31051
532.8000	1.31636
532.7750	1.32384
532.7500	1.32852
532.7250	1.33225
532.7000	1.33579
532.6750	1.3364
532.6500	1.33734
532.6250	1.33375
532.6000	1.33076
532.5750	1.32999
532.5500	1.32987
532.5250	1.32928
532.5000	1.32796
532.4750	1.32802
532.4500	1.32978
532.4250	1.32777
532.4000	1.32572
532.3750	1.32671
532.3500	1.32691
532.3250	1.32295
532.3000	1.32171
532.2750	1.32115
532.2500	1.32134
532.2250	1.3201
532.2000	1.31881
532.1750	1.31993
532.1500	1.31897
532.1250	1.32022
532.1000	1.31814
532.0750	1.31556
532.0500	1.31548
532.0250	1.31728
532.0000	1.31707
531.9750	1.31909
531.9500	1.31817
531.9250	1.31853
531.9000	1.32039
531.8750	1.31915
531.8500	1.31679
531.8250	1.31374
531.8000	1.30986
531.7750	1.31036
531.7500	1.30932
531.7250	1.3083
531.7000	1.30816
531.6750	1.30958
531.6500	1.30948
531.6250	1.30793
531.6000	1.30796
531.5750	1.30511
531.5500	1.30453
531.5250	1.30318
531.5000	1.30189
531.4750	1.3014
531.4500	1.29833
531.4250	1.29936
531.4000	1.3002
531.3750	1.29965
531.3500	1.30036
531.3250	1.29942
531.3000	1.29928
531.2750	1.30041
531.2500	1.29827
531.2250	1.2967
531.2000	1.29559
531.1750	1.29463
531.1500	1.29381
531.1250	1.29253
531.1000	1.29212
531.0750	1.29129
531.0500	1.2919
531.0250	1.29321
531.0000	1.29544
530.9750	1.29932
530.9500	1.30371
530.9250	1.31089
530.9000	1.31886
530.8750	1.31929
530.8500	1.32081
530.8250	1.32456
530.8000	1.32532
530.7750	1.32684
530.7500	1.3228
530.7250	1.32174
530.7000	1.32055
530.6750	1.32056
530.6500	1.31959
530.6250	1.31928
530.6000	1.31967
530.5750	1.32309
530.5500	1.32228
530.5250	1.32502
530.5000	1.31975
530.4750	1.32003
530.4500	1.32089
530.4250	1.31749
530.4000	1.31538
530.3750	1.31547
530.3500	1.31674
530.3250	1.31615
530.3000	1.31724
530.2750	1.31812
530.2500	1.31674
530.2250	1.31228
530.2000	1.30777
530.1750	1.3058
530.1500	1.30414
530.1250	1.30045
530.1000	1.3004
530.0750	1.30364
530.0500	1.30533
530.0250	1.3065
530.0000	1.30754
529.9750	1.30856
529.9500	1.30711
529.9250	1.30663
529.9000	1.30318
529.8750	1.30191
529.8500	1.29958
529.8250	1.30039
529.8000	1.29995
529.7750	1.29934
529.7500	1.29965
529.7250	1.30015
529.7000	1.29978
529.6750	1.30112
529.6500	1.29923
529.6250	1.29478
529.6000	1.29562
529.5750	1.29802
529.5500	1.29795
529.5250	1.29269
529.5000	1.29304
529.4750	1.29083
529.4500	1.29052
529.4250	1.28844
529.4000	1.28892
529.3750	1.28967
529.3500	1.29285
529.3250	1.29195
529.3000	1.29016
529.2750	1.28896
529.2500	1.28738
529.2250	1.28376
529.2000	1.28419
529.1750	1.28704
529.1500	1.29455
529.1250	1.29791
529.1000	1.30335
529.0750	1.31032
529.0500	1.31658
529.0250	1.31794
529.0000	1.31893
528.9750	1.31843
528.9500	1.31898
528.9250	1.31656
528.9000	1.3136
528.8750	1.31373
528.8500	1.31117
528.8250	1.31096
528.8000	1.31258
528.7750	1.31476
528.7500	1.31591
528.7250	1.31666
528.7000	1.31645
528.6750	1.3161
528.6500	1.3149
528.6250	1.31238
528.6000	1.31099
528.5750	1.31217
528.5500	1.3082
528.5250	1.30752
528.5000	1.30673
528.4750	1.3081
528.4500	1.30734
528.4250	1.307
528.4000	1.30846
528.3750	1.30742
528.3500	1.30884
528.3250	1.30819
528.3000	1.30953
528.2750	1.30776
528.2500	1.30842
528.2250	1.30766
528.2000	1.30544
528.1750	1.30618
528.1500	1.30574
528.1250	1.30538
528.1000	1.30585
528.0750	1.30596
528.0500	1.30651
528.0250	1.30703
528.0000	1.30667
527.9750	1.30629
527.9500	1.30644
527.9250	1.30318
527.9000	1.3033
527.8750	1.30019
527.8500	1.30011
527.8250	1.29763
527.8000	1.29802
527.7750	1.30071
527.7500	1.29815
527.7250	1.29879
527.7000	1.29789
527.6750	1.29682
527.6500	1.29392
527.6250	1.29104
527.6000	1.29007
527.5750	1.29102
527.5500	1.29224
527.5250	1.29066
527.5000	1.29108
527.4750	1.29411
527.4500	1.29503
527.4250	1.29699
527.4000	1.29769
527.3750	1.30215
527.3500	1.30358
527.3250	1.31019
527.3000	1.31409
527.2750	1.31662
527.2500	1.31987
527.2250	1.31991
527.2000	1.32094
527.1750	1.32026
527.1500	1.32214
527.1250	1.32213
527.1000	1.32212
527.0750	1.32008
527.0500	1.31988
527.0250	1.32201
527.0000	1.32162
526.9750	1.31909
526.9500	1.32063
526.9250	1.32119
526.9000	1.31924
526.8750	1.31824
526.8500	1.31806
526.8250	1.31563
526.8000	1.31645
526.7750	1.31621
526.7500	1.31796
526.7250	1.31741
526.7000	1.31569
526.6750	1.31193
526.6500	1.31082
526.6250	1.30627
526.6000	1.30522
526.5750	1.30419
526.5500	1.30255
526.5250	1.30418
526.5000	1.30536
526.4750	1.30644
526.4500	1.30639
526.4250	1.30656
526.4000	1.30541
526.3750	1.30425
526.3500	1.30435
526.3250	1.30262
526.3000	1.30218
526.2750	1.30251
526.2500	1.30276
526.2250	1.30162
526.2000	1.30305
526.1750	1.30269
526.1500	1.30297
526.1250	1.29868
526.1000	1.30019
526.0750	1.29921
526.0500	1.29126
526.0250	1.28979
526.0000	1.28884
525.9750	1.29265
525.9500	1.29219
525.9250	1.29337
525.9000	1.29459
525.8750	1.29316
525.8500	1.29196
525.8250	1.29057
525.8000	1.28878
525.7750	1.28648
525.7500	1.2897
525.7250	1.29273
525.7000	1.29873
525.6750	1.30529
525.6500	1.30842
525.6250	1.31107
525.6000	1.31574
525.5750	1.31728
525.5500	1.318
525.5250	1.31451
525.5000	1.31785
525.4750	1.31839
525.4500	1.31955
525.4250	1.31765
525.4000	1.31482
525.3750	1.31524
525.3500	1.31516
525.3250	1.31115
525.3000	1.31085
525.2750	1.30989
525.2500	1.3115
525.2250	1.31332
525.2000	1.31323
525.1750	1.31142
525.1500	1.31155
525.1250	1.31282
525.1000	1.31373
525.0750	1.31289
525.0500	1.31525
525.0250	1.315
525.0000	1.31752
524.9750	1.31634
524.9500	1.31388
524.9250	1.31147
524.9000	1.30796
524.8750	1.30929
524.8500	1.30666
524.8250	1.30398
524.8000	1.30313
524.7750	1.29994
524.7500	1.30069
524.7250	1.29936
524.7000	1.29917
524.6750	1.29918
524.6500	1.29928
524.6250	1.2991
524.6000	1.29999
524.5750	1.29811
524.5500	1.29617
524.5250	1.29639
524.5000	1.29315
524.4750	1.29624
524.4500	1.29461
524.4250	1.29671
524.4000	1.29751
524.3750	1.29527
524.3500	1.29657
524.3250	1.29439
524.3000	1.29194
524.2750	1.29098
524.2500	1.28782
524.2250	1.28853
524.2000	1.28755
524.1750	1.28459
524.1500	1.28701
524.1250	1.28743
524.1000	1.29005
524.0750	1.29316
524.0500	1.29624
524.0250	1.29691
524.0000	1.29861
523.9750	1.29738
523.9500	1.30078
523.9250	1.30148
523.9000	1.30127
523.8750	1.30693
523.8500	1.30672
523.8250	1.30983
523.8000	1.31519
523.7750	1.31447
523.7500	1.31116
523.7250	1.31053
523.7000	1.30534
523.6750	1.30541
523.6500	1.30252
523.6250	1.30315
523.6000	1.3037
523.5750	1.30422
523.5500	1.30348
523.5250	1.30402
523.5000	1.30469
523.4750	1.30465
523.4500	1.30278
523.4250	1.30153
523.4000	1.30083
523.3750	1.29989
523.3500	1.29863
523.3250	1.29849
523.3000	1.29955
523.2750	1.29776
523.2500	1.29781
523.2250	1.29636
523.2000	1.29594
523.1750	1.29398
523.1500	1.29109
523.1250	1.29356
523.1000	1.29256
523.0750	1.29112
523.0500	1.29034
523.0250	1.28845
523.0000	1.28827
522.9750	1.28826
522.9500	1.28488
522.9250	1.28469
522.9000	1.28517
522.8750	1.2856
522.8500	1.28303
522.8250	1.28245
522.8000	1.28019
522.7750	1.28049
522.7500	1.27816
522.7250	1.27822
522.7000	1.27729
522.6750	1.27519
522.6500	1.27596
522.6250	1.27779
522.6000	1.27722
522.5750	1.27917
522.5500	1.28178
522.5250	1.2876
522.5000	1.29165
522.4750	1.29559
522.4500	1.30022
522.4250	1.30112
522.4000	1.30311
522.3750	1.30254
522.3500	1.30027
522.3250	1.29793
522.3000	1.29951
522.2750	1.29762
522.2500	1.30116
522.2250	1.30001
522.2000	1.30135
522.1750	1.30217
522.1500	1.3001
522.1250	1.29986
522.1000	1.29909
522.0750	1.2995
522.0500	1.29773
522.0250	1.29725
522.0000	1.29945
521.9750	1.29816
521.9500	1.29757
521.9250	1.29732
521.9000	1.29693
521.8750	1.29496
521.8500	1.29849
521.8250	1.29736
521.8000	1.29768
521.7750	1.29466
521.7500	1.29416
521.7250	1.29603
521.7000	1.2981
521.6750	1.29712
521.6500	1.29589
521.6250	1.29844
521.6000	1.29792
521.5750	1.29511
521.5500	1.28935
521.5250	1.28791
521.5000	1.28626
521.4750	1.28683
521.4500	1.28291
521.4250	1.28139
521.4000	1.28154
521.3750	1.28224
521.3500	1.27859
521.3250	1.27639
521.3000	1.27786
521.2750	1.27976
521.2500	1.28037
521.2250	1.28091
521.2000	1.28038
521.1750	1.28228
521.1500	1.28197
521.1250	1.28218
521.1000	1.28392
521.0750	1.28517
521.0500	1.28984
521.0250	1.29441
521.0000	1.29636
520.9750	1.29738
520.9500	1.30129
520.9250	1.30028
520.9000	1.29804
520.8750	1.29633
520.8500	1.29861
520.8250	1.3008
520.8000	1.29968
520.7750	1.30356
520.7500	1.30275
520.7250	1.30706
520.7000	1.30481
520.6750	1.30364
520.6500	1.30364
520.6250	1.2984
520.6000	1.29794
520.5750	1.29807
520.5500	1.29494
520.5250	1.29776
520.5000	1.29863
520.4750	1.29863
520.4500	1.29756
520.4250	1.296
520.4000	1.29831
520.3750	1.30004
520.3500	1.29772
520.3250	1.29497
520.3000	1.2959
520.2750	1.2978
520.2500	1.29485
520.2250	1.29298
520.2000	1.29417
520.1750	1.29251
520.1500	1.29483
520.1250	1.29388
520.1000	1.29232
520.0750	1.29209
520.0500	1.289
520.0250	1.28971
520.0000	1.29176
519.9750	1.29078
519.9500	1.29115
519.9250	1.29115
519.9000	1.2911
519.8750	1.28925
519.8500	1.28751
519.8250	1.28392
519.8000	1.28387
519.7750	1.28263
519.7500	1.28008
519.7250	1.27935
519.7000	1.28005
519.6750	1.28502
519.6500	1.28658
519.6250	1.29071
519.6000	1.29542
519.5750	1.29903
519.5500	1.30109
519.5250	1.30163
519.5000	1.30291
519.4750	1.30455
519.4500	1.30435
519.4250	1.30588
519.4000	1.30498
519.3750	1.30699
519.3500	1.30459
519.3250	1.30302
519.3000	1.30324
519.2750	1.30391
519.2500	1.30026
519.2250	1.30044
519.2000	1.29871
519.1750	1.30091
519.1500	1.30204
519.1250	1.29923
519.1000	1.30097
519.0750	1.30211
519.0500	1.3038
519.0250	1.30464
519.0000	1.30145
518.9750	1.30147
518.9500	1.30153
518.9250	1.29744
518.9000	1.2992
518.8750	1.29648
518.8500	1.29641
518.8250	1.29949
518.8000	1.29961
518.7750	1.30038
518.7500	1.29599
518.7250	1.29674
518.7000	1.29641
518.6750	1.29656
518.6500	1.29317
518.6250	1.2896
518.6000	1.29116
518.5750	1.28879
518.5500	1.28827
518.5250	1.28717
518.5000	1.28424
518.4750	1.28427
518.4500	1.28379
518.4250	1.28404
518.4000	1.28468
518.3750	1.2823
518.3500	1.28472
518.3250	1.28693
518.3000	1.29303
518.2750	1.29949
518.2500	1.29946
518.2250	1.30188
518.2000	1.30307
518.1750	1.30401
518.1500	1.30651
518.1250	1.30208
518.1000	1.30192
518.0750	1.30254
518.0500	1.30381
518.0250	1.30579
518.0000	1.30234
517.9750	1.30181
517.9500	1.30242
517.9250	1.30253
517.9000	1.30062
517.8750	1.29892
517.8500	1.30023
517.8250	1.29681
517.8000	1.29581
517.7750	1.29854
517.7500	1.30046
517.7250	1.3
517.7000	1.29902
517.6750	1.29937
517.6500	1.30138
517.6250	1.29997
517.6000	1.29761
517.5750	1.29712
517.5500	1.29549
517.5250	1.29356
517.5000	1.2917
517.4750	1.28889
517.4500	1.29165
517.4250	1.2902
517.4000	1.28916
517.3750	1.28678
517.3500	1.28562
517.3250	1.28703
517.3000	1.28405
517.2750	1.28364
517.2500	1.28572
517.2250	1.28579
517.2000	1.28546
517.1750	1.28468
517.1500	1.28789
517.1250	1.28331
517.1000	1.2783
517.0750	1.27717
517.0500	1.28011
517.0250	1.28194
517.0000	1.28312
516.9750	1.28792
516.9500	1.29169
516.9250	1.29356
516.9000	1.29862
516.8750	1.29836
516.8500	1.3005
516.8250	1.29722
516.8000	1.29565
516.7750	1.29647
516.7500	1.29719
516.7250	1.29821
516.7000	1.29563
516.6750	1.29726
516.6500	1.30022
516.6250	1.30043
516.6000	1.29969
516.5750	1.29903
516.5500	1.29795
516.5250	1.29706
516.5000	1.29894
516.4750	1.29627
516.4500	1.29505
516.4250	1.29467
516.4000	1.29169
516.3750	1.29255
516.3500	1.29259
516.3250	1.2907
516.3000	1.29071
516.2750	1.29033
516.2500	1.29169
516.2250	1.29269
516.2000	1.29245
516.1750	1.2927
516.1500	1.29117
516.1250	1.28848
516.1000	1.28755
516.0750	1.28243
516.0500	1.28
516.0250	1.27602
516.0000	1.27475
515.9750	1.27377
515.9500	1.27879
515.9250	1.28003
515.9000	1.28224
515.8750	1.2814
515.8500	1.2835
515.8250	1.28194
515.8000	1.28298
515.7750	1.28387
515.7500	1.28418
515.7250	1.28863
515.7000	1.29307
515.6750	1.29414
515.6500	1.29585
515.6250	1.29663
515.6000	1.29724
515.5750	1.2964
515.5500	1.29612
515.5250	1.29687
515.5000	1.29677
515.4750	1.29646
515.4500	1.29517
515.4250	1.29413
515.4000	1.29226
515.3750	1.29241
515.3500	1.29125
515.3250	1.2885
515.3000	1.28739
515.2750	1.28736
515.2500	1.287
515.2250	1.28619
515.2000	1.28679
515.1750	1.28955
515.1500	1.28753
515.1250	1.28734
515.1000	1.28508
515.0750	1.28517
515.0500	1.28261
515.0250	1.28179
515.0000	1.28061
514.9750	1.27731
514.9500	1.28016
514.9250	1.27764
514.9000	1.27887
514.8750	1.27996
514.8500	1.27981
514.8250	1.27958
514.8000	1.27827
514.7750	1.27729
514.7500	1.27615
514.7250	1.27493
514.7000	1.27127
514.6750	1.27415
514.6500	1.27591
514.6250	1.2749
514.6000	1.27784
514.5750	1.28255
514.5500	1.28727
514.5250	1.28984
514.5000	1.29236
514.4750	1.29324
514.4500	1.29514
514.4250	1.29116
514.4000	1.28892
514.3750	1.28709
514.3500	1.28365
514.3250	1.28128
514.3000	1.2815
514.2750	1.27997
514.2500	1.28027
514.2250	1.28111
514.2000	1.28092
514.1750	1.28161
514.1500	1.2808
514.1250	1.28241
514.1000	1.28393
514.0750	1.28411
514.0500	1.28561
514.0250	1.28389
514.0000	1.28356
513.9750	1.28139
513.9500	1.28488
513.9250	1.28154
513.9000	1.28162
513.8750	1.28225
513.8500	1.28408
513.8250	1.28232
513.8000	1.28157
513.7750	1.28147
513.7500	1.28306
513.7250	1.28274
513.7000	1.28027
513.6750	1.28171
513.6500	1.27736
513.6250	1.27924
513.6000	1.28006
513.5750	1.28084
513.5500	1.28061
513.5250	1.28081
513.5000	1.28342
513.4750	1.28294
513.4500	1.27998
513.4250	1.2825
513.4000	1.28696
513.3750	1.2863
513.3500	1.28816
513.3250	1.29128
513.3000	1.2947
513.2750	1.29646
513.2500	1.29709
513.2250	1.29374
513.2000	1.29383
513.1750	1.29427
513.1500	1.29055
513.1250	1.28691
513.1000	1.28603
513.0750	1.28664
513.0500	1.28819
513.0250	1.28727
513.0000	1.28783
512.9750	1.28679
512.9500	1.28279
512.9250	1.28324
512.9000	1.2818
512.8750	1.28293
512.8500	1.28338
512.8250	1.28311
512.8000	1.28601
512.7750	1.28418
512.7500	1.28139
512.7250	1.28129
512.7000	1.28027
512.6750	1.27986
512.6500	1.27732
512.6250	1.27882
512.6000	1.27769
512.5750	1.27535
512.5500	1.27522
512.5250	1.27507
512.5000	1.2768
512.4750	1.27623
512.4500	1.27509
512.4250	1.27714
512.4000	1.27859
512.3750	1.28197
512.3500	1.28174
512.3250	1.28318
512.3000	1.28826
512.2750	1.28716
512.2500	1.285
512.2250	1.2832
512.2000	1.28442
512.1750	1.28453
512.1500	1.28253
512.1250	1.28091
512.1000	1.28349
512.0750	1.28575
512.0500	1.28695
512.0250	1.28777
512.0000	1.28696
511.9750	1.28937
511.9500	1.2903
511.9250	1.28904
511.9000	1.28698
511.8750	1.28796
511.8500	1.29011
511.8250	1.2891
511.8000	1.28745
511.7750	1.28685
511.7500	1.28517
511.7250	1.2838
511.7000	1.28141
511.6750	1.27949
511.6500	1.27876
511.6250	1.28018
511.6000	1.28185
511.5750	1.28238
511.5500	1.28103
511.5250	1.2801
511.5000	1.28145
511.4750	1.28208
511.4500	1.28318
511.4250	1.28417
511.4000	1.28449
511.3750	1.28668
511.3500	1.28907
511.3250	1.29097
511.3000	1.29135
511.2750	1.29019
511.2500	1.29088
511.2250	1.29158
511.2000	1.29166
511.1750	1.2916
511.1500	1.29189
511.1250	1.29085
511.1000	1.29337
511.0750	1.29337
511.0500	1.2941
511.0250	1.29044
511.0000	1.29309
510.9750	1.29076
510.9500	1.28937
510.9250	1.28914
510.9000	1.28977
510.8750	1.28984
510.8500	1.28971
510.8250	1.28803
510.8000	1.28862
510.7750	1.28507
510.7500	1.28529
510.7250	1.28203
510.7000	1.28363
510.6750	1.27967
510.6500	1.27805
510.6250	1.28052
510.6000	1.28416
510.5750	1.28546
510.5500	1.28706
510.5250	1.28869
510.5000	1.29081
510.4750	1.2928
510.4500	1.29178
510.4250	1.29044
510.4000	1.2907
510.3750	1.29056
510.3500	1.29131
510.3250	1.29203
510.3000	1.29302
510.2750	1.29246
510.2500	1.29091
510.2250	1.29245
510.2000	1.29062
510.1750	1.29031
510.1500	1.28747
510.1250	1.28573
510.1000	1.28533
510.0750	1.28255
510.0500	1.28336
510.0250	1.28462
510.0000	1.28765
509.9750	1.289
509.9500	1.29113
509.9250	1.28577
509.9000	1.28232
509.8750	1.28262
509.8500	1.28193
509.8250	1.2815
509.8000	1.2797
509.7750	1.2849
509.7500	1.28813
509.7250	1.28659
509.7000	1.28501
509.6750	1.28429
509.6500	1.28114
509.6250	1.27911
509.6000	1.27494
509.5750	1.27483
509.5500	1.27646
509.5250	1.27662
509.5000	1.27875
509.4750	1.28121
509.4500	1.28056
509.4250	1.28414
509.4000	1.28861
509.3750	1.29005
509.3500	1.29256
509.3250	1.29173
509.3000	1.29104
509.2750	1.28819
509.2500	1.28426
509.2250	1.28165
509.2000	1.28165
509.1750	1.28221
509.1500	1.28296
509.1250	1.2841
509.1000	1.28515
509.0750	1.28727
509.0500	1.28669
509.0250	1.28476
509.0000	1.28248
508.9750	1.28053
508.9500	1.27651
508.9250	1.2734
508.9000	1.27266
508.8750	1.27002
508.8500	1.27274
508.8250	1.27329
508.8000	1.27461
508.7750	1.27594
508.7500	1.27955
508.7250	1.28315
508.7000	1.28588
508.6750	1.28696
508.6500	1.29152
508.6250	1.29409
508.6000	1.294
508.5750	1.29228
508.5500	1.29344
508.5250	1.29073
508.5000	1.28613
508.4750	1.285
508.4500	1.28408
508.4250	1.28335
508.4000	1.28212
508.3750	1.28298
508.3500	1.28568
508.3250	1.28537
508.3000	1.2883
508.2750	1.28718
508.2500	1.28357
508.2250	1.28384
508.2000	1.28324
508.1750	1.28085
508.1500	1.27694
508.1250	1.27699
508.1000	1.27848
508.0750	1.2789
508.0500	1.27543
508.0250	1.27303
508.0000	1.27371
507.9750	1.27423
507.9500	1.27277
507.9250	1.27322
507.9000	1.27337
507.8750	1.27608
507.8500	1.27674
507.8250	1.27552
507.8000	1.27779
507.7750	1.27787
507.7500	1.28016
507.7250	1.28176
507.7000	1.27998
507.6750	1.27765
507.6500	1.27361
507.6250	1.27351
507.6000	1.27318
507.5750	1.27303
507.5500	1.27426
507.5250	1.27802
507.5000	1.27796
507.4750	1.28083
507.4500	1.28258
507.4250	1.28231
507.4000	1.28138
507.3750	1.27857
507.3500	1.27859
507.3250	1.27958
507.3000	1.2784
507.2750	1.27925
507.2500	1.27695
507.2250	1.27402
507.2000	1.27494
507.1750	1.27584
507.1500	1.27319
507.1250	1.27612
507.1000	1.27555
507.0750	1.28108
507.0500	1.28154
507.0250	1.28152
507.0000	1.28277
506.9750	1.27894
506.9500	1.28006
506.9250	1.27949
506.9000	1.27821
506.8750	1.2777
506.8500	1.27864
506.8250	1.27691
506.8000	1.27901
506.7750	1.27822
506.7500	1.2799
506.7250	1.28175
506.7000	1.28006
506.6750	1.2796
506.6500	1.28086
506.6250	1.27905
506.6000	1.27996
506.5750	1.27862
506.5500	1.27801
506.5250	1.27753
506.5000	1.27527
506.4750	1.27762
506.4500	1.27699
506.4250	1.27983
506.4000	1.28089
506.3750	1.28165
506.3500	1.28015
506.3250	1.28151
506.3000	1.2797
506.2750	1.27788
506.2500	1.27832
506.2250	1.2782
506.2000	1.27804
506.1750	1.27656
506.1500	1.27755
506.1250	1.27696
506.1000	1.27633
506.0750	1.27253
506.0500	1.27255
506.0250	1.27244
506.0000	1.27178
505.9750	1.26809
505.9500	1.26907
505.9250	1.2721
505.9000	1.27388
505.8750	1.27519
505.8500	1.27518
505.8250	1.27603
505.8000	1.27723
505.7750	1.27844
505.7500	1.28109
505.7250	1.2798
505.7000	1.27707
505.6750	1.27841
505.6500	1.28304
505.6250	1.28199
505.6000	1.28106
505.5750	1.27914
505.5500	1.28142
505.5250	1.28074
505.5000	1.27539
505.4750	1.27263
505.4500	1.27425
505.4250	1.27494
505.4000	1.27589
505.3750	1.27649
505.3500	1.27519
505.3250	1.27837
505.3000	1.27765
505.2750	1.27666
505.2500	1.27463
505.2250	1.26988
505.2000	1.27379
505.1750	1.27404
505.1500	1.27489
505.1250	1.2776
505.1000	1.27776
505.0750	1.27901
505.0500	1.28175
505.0250	1.28042
505.0000	1.28099
504.9750	1.2809
504.9500	1.28162
504.9250	1.28158
504.9000	1.28226
504.8750	1.28052
504.8500	1.2809
504.8250	1.27824
504.8000	1.28008
504.7750	1.28213
504.7500	1.27999
504.7250	1.28117
504.7000	1.28127
504.6750	1.28064
504.6500	1.282
504.6250	1.28129
504.6000	1.27978
504.5750	1.27734
504.5500	1.2794
504.5250	1.27739
504.5000	1.27822
504.4750	1.27937
504.4500	1.28132
504.4250	1.28401
504.4000	1.28594
504.3750	1.28418
504.3500	1.28203
504.3250	1.28188
504.3000	1.28057
504.2750	1.27998
504.2500	1.28173
504.2250	1.28473
504.2000	1.28491
504.1750	1.28624
504.1500	1.28707
504.1250	1.2884
504.1000	1.28405
504.0750	1.28055
504.0500	1.27891
504.0250	1.27896
504.0000	1.27801
503.9750	1.27909
503.9500	1.27916
503.9250	1.28006
503.9000	1.28241
503.8750	1.28449
503.8500	1.281
503.8250	1.28169
503.8000	1.27791
503.7750	1.27648
503.7500	1.27997
503.7250	1.27808
503.7000	1.27794
503.6750	1.28074
503.6500	1.28404
503.6250	1.28557
503.6000	1.28505
503.5750	1.2823
503.5500	1.28299
503.5250	1.28327
503.5000	1.27899
503.4750	1.27942
503.4500	1.27947
503.4250	1.2779
503.4000	1.28073
503.3750	1.28147
503.3500	1.27982
503.3250	1.28061
503.3000	1.28228
503.2750	1.28115
503.2500	1.27979
503.2250	1.27936
503.2000	1.27892
503.1750	1.2821
503.1500	1.28019
503.1250	1.28296
503.1000	1.28382
503.0750	1.28062
503.0500	1.28113
503.0250	1.28006
503.0000	1.28196
502.9750	1.28327
502.9500	1.28337
502.9250	1.28453
502.9000	1.28303
502.8750	1.2823
502.8500	1.27974
502.8250	1.27942
502.8000	1.2778
502.7750	1.27685
502.7500	1.27564
502.7250	1.27647
502.7000	1.27605
502.6750	1.27403
502.6500	1.27351
502.6250	1.27391
502.6000	1.27504
502.5750	1.27638
502.5500	1.27626
502.5250	1.27875
502.5000	1.28011
502.4750	1.28328
502.4500	1.28439
502.4250	1.28514
502.4000	1.28439
502.3750	1.2844
502.3500	1.28137
502.3250	1.27856
502.3000	1.27649
502.2750	1.27415
502.2500	1.27303
502.2250	1.27129
502.2000	1.27126
502.1750	1.2721
502.1500	1.27488
502.1250	1.2764
502.1000	1.27709
502.0750	1.27723
502.0500	1.28075
502.0250	1.28168
502.0000	1.2827
501.9750	1.28102
501.9500	1.2819
501.9250	1.28293
501.9000	1.28171
501.8750	1.27943
501.8500	1.28062
501.8250	1.28064
501.8000	1.27921
501.7750	1.28074
501.7500	1.2798
501.7250	1.27881
501.7000	1.28069
501.6750	1.27515
501.6500	1.27364
501.6250	1.27592
501.6000	1.27408
501.5750	1.27485
501.5500	1.27442
501.5250	1.2775
501.5000	1.27822
501.4750	1.27764
501.4500	1.27802
501.4250	1.27942
501.4000	1.27664
501.3750	1.27443
501.3500	1.26957
501.3250	1.26987
501.3000	1.27102
501.2750	1.27152
501.2500	1.27241
501.2250	1.27317
501.2000	1.27895
501.1750	1.27982
501.1500	1.28266
501.1250	1.2798
501.1000	1.2828
501.0750	1.28309
501.0500	1.28053
501.0250	1.27797
501.0000	1.27423
500.9750	1.27527
500.9500	1.27388
500.9250	1.27084
500.9000	1.27007
500.8750	1.26928
500.8500	1.27119
500.8250	1.27063
500.8000	1.26959
500.7750	1.26759
500.7500	1.26895
500.7250	1.27025
500.7000	1.27328
500.6750	1.27386
500.6500	1.27301
500.6250	1.27427
500.6000	1.27504
500.5750	1.27512
500.5500	1.27153
500.5250	1.27246
500.5000	1.26928
500.4750	1.26864
500.4500	1.26307
500.4250	1.26391
500.4000	1.26414
500.3750	1.26289
500.3500	1.26392
500.3250	1.26464
500.3000	1.26818
500.2750	1.26763
500.2500	1.26965
500.2250	1.26981
500.2000	1.27277
500.1750	1.27163
500.1500	1.2729
500.1250	1.27477
500.1000	1.27175
500.0750	1.27103
500.0500	1.26904
500.0250	1.26506
500.0000	1.26503

##### Extended Information
[Comments]
Sample name
Comment
User
Division
Company	FU Berlin

[Detailed Information]
Creation date	04.06.2018 12:15

Data array type	Linear data array
Horizontal axis	Wavelength [nm]
Vertical axis	%T
Start	650 nm
End	500 nm
Data interval	0.025 nm
Data points	6001    

[Measurement Information]
Instrument name	JASCO-V750
Model name	V-750
Serial No.	A007961799

Measurement date	04.06.2018 10:58

Photometric mode	%T
Measurement range	650 - 500 nm
Data interval	0.025 nm
Bandwidth	0.1 nm
Response	0.96 sec
Scan speed	10 nm/min
Change source at	340 nm
Light source	D2/WI
Filter exchange	Step
Correction	None
No. of cycles	4
Cycle interval	0 sec
Cycle No.	1

